[SUMMARY]
Software Information
Software Name:	UVProbe
Version:	2.43
Mode:	Normal Mode

Data Information
Data is:	Original
Analyst:	
Date/Time:	05/04/2023 12:24:45
Comments:	

Instrument Information
Instrument Name:	SolidSpec3700
Instrument Type:	SolidSpec-3700 Series
Model (S/N):	SolidSpec3700 ( A11085100264CZ )

[METHOD]
[Measurement Properties]
Wavelength Range (nm.):	285,00 to 1600,00
Scan Speed:	Medium
Sampling Interval:	1,0
Auto Sampling Interval:	Disabled
Scan Mode:	Single

[Sample Preparation Properties]
Weight:	
Volume:	
Dilution:	
Path Length:	
Additional Information:	

[Instrument Properties]
Instrument Type:	SolidSpec-3700 Series
Measuring Mode:	Reflectance
Slit Width:	5,0 nm
Time Constant:	1,0 sec.
Source Lamp:	Auto
Light Source Change Wavelength:	282,00 nm
Detector Unit:	Integral Sphere
Detector Change Wavelength:	900,00 nm  1650,00 nm
Grating Change Wavelength:	1000,00 nm
S/R Exchange:	Inverse
Detector Lock:	Auto
Slit Program:	Fixed
Beam Mode:	Double
Stair Correction:	Disable

[Attachment Properties]
Attachment:	X-Y Stage
Sequence File:	R_robot_16-100-P1_optical_pads.xys

[Operation]
Threshold:	0,0010000
Points:	4
InterPolate:	Disabled
Average:	Disabled

[DATA]
Wavelength	Data
285.0	5.388
286.0	5.471
287.0	5.541
288.0	5.579
289.0	5.645
290.0	5.734
291.0	5.781
292.0	5.796
293.0	5.820
294.0	5.881
295.0	5.913
296.0	5.970
297.0	6.020
298.0	6.053
299.0	6.093
300.0	6.128
301.0	6.198
302.0	6.204
303.0	6.231
304.0	6.219
305.0	6.259
306.0	6.234
307.0	6.261
308.0	6.262
309.0	6.284
310.0	6.263
311.0	6.257
312.0	6.264
313.0	6.282
314.0	6.222
315.0	6.192
316.0	6.161
317.0	6.148
318.0	6.128
319.0	6.067
320.0	6.054
321.0	5.975
322.0	5.939
323.0	5.877
324.0	5.877
325.0	5.862
326.0	5.812
327.0	5.722
328.0	5.613
329.0	5.555
330.0	5.520
331.0	5.525
332.0	5.496
333.0	5.453
334.0	5.397
335.0	5.320
336.0	5.275
337.0	5.211
338.0	5.180
339.0	5.125
340.0	5.089
341.0	5.050
342.0	5.030
343.0	4.974
344.0	4.948
345.0	4.898
346.0	4.885
347.0	4.830
348.0	4.788
349.0	4.761
350.0	4.737
351.0	4.724
352.0	4.700
353.0	4.691
354.0	4.681
355.0	4.648
356.0	4.637
357.0	4.621
358.0	4.624
359.0	4.624
360.0	4.609
361.0	4.605
362.0	4.564
363.0	4.545
364.0	4.508
365.0	4.517
366.0	4.507
367.0	4.533
368.0	4.519
369.0	4.522
370.0	4.483
371.0	4.462
372.0	4.441
373.0	4.433
374.0	4.435
375.0	4.424
376.0	4.417
377.0	4.407
378.0	4.395
379.0	4.387
380.0	4.365
381.0	4.357
382.0	4.351
383.0	4.357
384.0	4.349
385.0	4.346
386.0	4.342
387.0	4.353
388.0	4.350
389.0	4.341
390.0	4.335
391.0	4.322
392.0	4.320
393.0	4.310
394.0	4.317
395.0	4.307
396.0	4.300
397.0	4.296
398.0	4.282
399.0	4.270
400.0	4.239
401.0	4.232
402.0	4.215
403.0	4.209
404.0	4.205
405.0	4.198
406.0	4.193
407.0	4.176
408.0	4.168
409.0	4.159
410.0	4.159
411.0	4.152
412.0	4.156
413.0	4.145
414.0	4.147
415.0	4.136
416.0	4.139
417.0	4.138
418.0	4.142
419.0	4.141
420.0	4.135
421.0	4.122
422.0	4.120
423.0	4.123
424.0	4.128
425.0	4.116
426.0	4.104
427.0	4.108
428.0	4.117
429.0	4.117
430.0	4.097
431.0	4.094
432.0	4.098
433.0	4.112
434.0	4.114
435.0	4.126
436.0	4.137
437.0	4.150
438.0	4.152
439.0	4.156
440.0	4.169
441.0	4.176
442.0	4.190
443.0	4.202
444.0	4.223
445.0	4.240
446.0	4.262
447.0	4.289
448.0	4.315
449.0	4.336
450.0	4.361
451.0	4.390
452.0	4.423
453.0	4.449
454.0	4.473
455.0	4.498
456.0	4.521
457.0	4.553
458.0	4.587
459.0	4.625
460.0	4.662
461.0	4.692
462.0	4.723
463.0	4.744
464.0	4.770
465.0	4.794
466.0	4.819
467.0	4.843
468.0	4.880
469.0	4.918
470.0	4.948
471.0	4.977
472.0	5.006
473.0	5.040
474.0	5.069
475.0	5.101
476.0	5.134
477.0	5.167
478.0	5.199
479.0	5.228
480.0	5.245
481.0	5.269
482.0	5.292
483.0	5.334
484.0	5.367
485.0	5.398
486.0	5.421
487.0	5.437
488.0	5.461
489.0	5.477
490.0	5.498
491.0	5.516
492.0	5.541
493.0	5.565
494.0	5.594
495.0	5.612
496.0	5.634
497.0	5.645
498.0	5.669
499.0	5.682
500.0	5.706
501.0	5.716
502.0	5.742
503.0	5.761
504.0	5.787
505.0	5.799
506.0	5.810
507.0	5.821
508.0	5.831
509.0	5.856
510.0	5.868
511.0	5.880
512.0	5.889
513.0	5.894
514.0	5.903
515.0	5.906
516.0	5.919
517.0	5.923
518.0	5.920
519.0	5.919
520.0	5.909
521.0	5.905
522.0	5.901
523.0	5.910
524.0	5.911
525.0	5.914
526.0	5.915
527.0	5.919
528.0	5.915
529.0	5.912
530.0	5.901
531.0	5.890
532.0	5.875
533.0	5.869
534.0	5.847
535.0	5.843
536.0	5.837
537.0	5.831
538.0	5.812
539.0	5.786
540.0	5.786
541.0	5.768
542.0	5.752
543.0	5.719
544.0	5.706
545.0	5.688
546.0	5.660
547.0	5.642
548.0	5.628
549.0	5.630
550.0	5.621
551.0	5.602
552.0	5.583
553.0	5.560
554.0	5.543
555.0	5.527
556.0	5.511
557.0	5.498
558.0	5.475
559.0	5.461
560.0	5.446
561.0	5.426
562.0	5.403
563.0	5.385
564.0	5.375
565.0	5.371
566.0	5.350
567.0	5.340
568.0	5.325
569.0	5.312
570.0	5.297
571.0	5.279
572.0	5.278
573.0	5.265
574.0	5.252
575.0	5.239
576.0	5.233
577.0	5.226
578.0	5.221
579.0	5.221
580.0	5.216
581.0	5.210
582.0	5.200
583.0	5.196
584.0	5.195
585.0	5.194
586.0	5.198
587.0	5.196
588.0	5.198
589.0	5.192
590.0	5.191
591.0	5.191
592.0	5.189
593.0	5.185
594.0	5.192
595.0	5.203
596.0	5.210
597.0	5.206
598.0	5.204
599.0	5.217
600.0	5.223
601.0	5.236
602.0	5.239
603.0	5.252
604.0	5.256
605.0	5.258
606.0	5.265
607.0	5.261
608.0	5.274
609.0	5.278
610.0	5.291
611.0	5.301
612.0	5.318
613.0	5.332
614.0	5.348
615.0	5.359
616.0	5.376
617.0	5.388
618.0	5.398
619.0	5.411
620.0	5.428
621.0	5.443
622.0	5.462
623.0	5.477
624.0	5.498
625.0	5.521
626.0	5.538
627.0	5.556
628.0	5.569
629.0	5.575
630.0	5.589
631.0	5.603
632.0	5.626
633.0	5.642
634.0	5.671
635.0	5.691
636.0	5.721
637.0	5.736
638.0	5.774
639.0	5.794
640.0	5.808
641.0	5.822
642.0	5.845
643.0	5.877
644.0	5.896
645.0	5.908
646.0	5.925
647.0	5.955
648.0	5.999
649.0	6.037
650.0	6.059
651.0	6.073
652.0	6.079
653.0	6.108
654.0	6.136
655.0	6.178
656.0	6.196
657.0	6.225
658.0	6.253
659.0	6.275
660.0	6.289
661.0	6.301
662.0	6.327
663.0	6.355
664.0	6.375
665.0	6.398
666.0	6.426
667.0	6.461
668.0	6.498
669.0	6.534
670.0	6.571
671.0	6.619
672.0	6.643
673.0	6.662
674.0	6.680
675.0	6.725
676.0	6.771
677.0	6.797
678.0	6.808
679.0	6.844
680.0	6.894
681.0	6.945
682.0	6.966
683.0	6.985
684.0	7.009
685.0	7.045
686.0	7.078
687.0	7.114
688.0	7.132
689.0	7.144
690.0	7.166
691.0	7.191
692.0	7.228
693.0	7.246
694.0	7.285
695.0	7.312
696.0	7.354
697.0	7.392
698.0	7.435
699.0	7.474
700.0	7.490
701.0	7.514
702.0	7.531
703.0	7.560
704.0	7.595
705.0	7.638
706.0	7.685
707.0	7.710
708.0	7.738
709.0	7.771
710.0	7.797
711.0	7.819
712.0	7.823
713.0	7.867
714.0	7.898
715.0	7.953
716.0	7.976
717.0	7.994
718.0	8.025
719.0	8.035
720.0	8.078
721.0	8.090
722.0	8.128
723.0	8.159
724.0	8.208
725.0	8.249
726.0	8.283
727.0	8.298
728.0	8.334
729.0	8.368
730.0	8.398
731.0	8.434
732.0	8.460
733.0	8.502
734.0	8.498
735.0	8.513
736.0	8.530
737.0	8.589
738.0	8.665
739.0	8.710
740.0	8.727
741.0	8.754
742.0	8.812
743.0	8.865
744.0	8.870
745.0	8.898
746.0	8.932
747.0	8.992
748.0	9.004
749.0	9.028
750.0	9.060
751.0	9.111
752.0	9.140
753.0	9.156
754.0	9.147
755.0	9.181
756.0	9.231
757.0	9.265
758.0	9.304
759.0	9.330
760.0	9.390
761.0	9.433
762.0	9.471
763.0	9.519
764.0	9.572
765.0	9.593
766.0	9.605
767.0	9.608
768.0	9.642
769.0	9.709
770.0	9.756
771.0	9.777
772.0	9.789
773.0	9.835
774.0	9.879
775.0	9.911
776.0	9.914
777.0	9.935
778.0	9.949
779.0	9.982
780.0	10.012
781.0	10.045
782.0	10.029
783.0	10.049
784.0	10.061
785.0	10.116
786.0	10.151
787.0	10.172
788.0	10.190
789.0	10.224
790.0	10.286
791.0	10.346
792.0	10.344
793.0	10.356
794.0	10.359
795.0	10.389
796.0	10.411
797.0	10.449
798.0	10.509
799.0	10.528
800.0	10.539
801.0	10.538
802.0	10.567
803.0	10.618
804.0	10.667
805.0	10.698
806.0	10.719
807.0	10.734
808.0	10.766
809.0	10.790
810.0	10.842
811.0	10.881
812.0	10.924
813.0	10.931
814.0	10.921
815.0	10.916
816.0	10.970
817.0	11.016
818.0	11.100
819.0	11.073
820.0	11.077
821.0	11.028
822.0	11.086
823.0	11.152
824.0	11.207
825.0	11.185
826.0	11.168
827.0	11.205
828.0	11.282
829.0	11.340
830.0	11.342
831.0	11.360
832.0	11.368
833.0	11.383
834.0	11.469
835.0	11.547
836.0	11.604
837.0	11.580
838.0	11.552
839.0	11.496
840.0	11.492
841.0	11.532
842.0	11.702
843.0	11.732
844.0	11.825
845.0	11.828
846.0	11.833
847.0	11.703
848.0	11.734
849.0	11.803
850.0	11.839
851.0	11.744
852.0	11.708
853.0	11.821
854.0	11.779
855.0	11.771
856.0	11.664
857.0	11.757
858.0	11.745
859.0	11.914
860.0	12.102
861.0	11.996
862.0	11.855
863.0	11.878
864.0	12.129
865.0	12.081
866.0	12.004
867.0	11.709
868.0	11.879
869.0	11.864
870.0	12.337
871.0	12.429
872.0	12.840
873.0	12.908
874.0	13.124
875.0	12.830
876.0	12.416
877.0	12.013
878.0	11.771
879.0	11.808
880.0	12.316
881.0	12.583
882.0	12.810
883.0	13.297
884.0	12.723
885.0	11.647
886.0	9.836
887.0	10.952
888.0	12.683
889.0	13.077
890.0	12.780
891.0	12.051
892.0	13.006
893.0	13.119
894.0	13.236
895.0	13.457
896.0	14.108
897.0	13.213
898.0	12.127
899.0	13.182
900.0	13.912
901.0	15.767
902.0	14.437
903.0	13.285
904.0	12.056
905.0	9.935
906.0	10.775
907.0	9.788
908.0	10.908
909.0	9.875
910.0	10.978
911.0	11.965
912.0	12.653
913.0	12.287
914.0	11.723
915.0	12.237
916.0	12.542
917.0	12.230
918.0	12.512
919.0	11.975
920.0	12.051
921.0	13.209
922.0	13.370
923.0	14.176
924.0	12.633
925.0	13.378
926.0	12.613
927.0	13.503
928.0	11.343
929.0	10.129
930.0	9.584
931.0	12.342
932.0	13.686
933.0	14.590
934.0	13.123
935.0	12.650
936.0	11.555
937.0	12.406
938.0	11.966
939.0	12.597
940.0	12.141
941.0	12.599
942.0	13.216
943.0	12.744
944.0	12.216
945.0	11.159
946.0	11.419
947.0	13.180
948.0	13.032
949.0	13.135
950.0	12.808
951.0	13.985
952.0	14.885
953.0	14.810
954.0	14.101
955.0	13.837
956.0	13.648
957.0	13.649
958.0	13.532
959.0	13.902
960.0	13.714
961.0	13.784
962.0	13.078
963.0	13.268
964.0	13.459
965.0	13.299
966.0	12.429
967.0	11.938
968.0	12.425
969.0	13.318
970.0	13.999
971.0	13.890
972.0	13.794
973.0	12.425
974.0	13.228
975.0	13.237
976.0	14.048
977.0	12.587
978.0	12.382
979.0	12.181
980.0	12.837
981.0	13.423
982.0	12.793
983.0	13.012
984.0	12.448
985.0	13.463
986.0	13.352
987.0	13.413
988.0	12.779
989.0	12.500
990.0	12.409
991.0	13.297
992.0	13.604
993.0	14.048
994.0	13.748
995.0	13.749
996.0	12.782
997.0	12.816
998.0	12.587
999.0	13.468
1000.0	13.233
1001.0	13.403
1002.0	13.306
1003.0	13.306
1004.0	13.285
1005.0	13.287
1006.0	13.288
1007.0	13.283
1008.0	13.266
1009.0	13.263
1010.0	13.264
1011.0	13.244
1012.0	13.244
1013.0	13.237
1014.0	13.238
1015.0	13.230
1016.0	13.248
1017.0	13.261
1018.0	13.247
1019.0	13.214
1020.0	13.219
1021.0	13.237
1022.0	13.257
1023.0	13.248
1024.0	13.231
1025.0	13.226
1026.0	13.215
1027.0	13.234
1028.0	13.224
1029.0	13.217
1030.0	13.200
1031.0	13.195
1032.0	13.178
1033.0	13.148
1034.0	13.118
1035.0	13.130
1036.0	13.149
1037.0	13.153
1038.0	13.142
1039.0	13.141
1040.0	13.135
1041.0	13.151
1042.0	13.143
1043.0	13.151
1044.0	13.103
1045.0	13.105
1046.0	13.090
1047.0	13.115
1048.0	13.097
1049.0	13.104
1050.0	13.089
1051.0	13.073
1052.0	13.056
1053.0	13.043
1054.0	13.037
1055.0	13.025
1056.0	13.041
1057.0	13.022
1058.0	13.029
1059.0	13.001
1060.0	13.020
1061.0	13.022
1062.0	13.031
1063.0	13.020
1064.0	12.980
1065.0	12.970
1066.0	12.989
1067.0	13.013
1068.0	13.013
1069.0	12.994
1070.0	12.982
1071.0	12.979
1072.0	12.968
1073.0	12.953
1074.0	12.942
1075.0	12.925
1076.0	12.917
1077.0	12.900
1078.0	12.897
1079.0	12.917
1080.0	12.919
1081.0	12.942
1082.0	12.907
1083.0	12.891
1084.0	12.876
1085.0	12.893
1086.0	12.896
1087.0	12.902
1088.0	12.910
1089.0	12.915
1090.0	12.876
1091.0	12.849
1092.0	12.823
1093.0	12.840
1094.0	12.816
1095.0	12.805
1096.0	12.789
1097.0	12.799
1098.0	12.813
1099.0	12.807
1100.0	12.822
1101.0	12.817
1102.0	12.813
1103.0	12.796
1104.0	12.797
1105.0	12.780
1106.0	12.767
1107.0	12.747
1108.0	12.729
1109.0	12.722
1110.0	12.714
1111.0	12.737
1112.0	12.733
1113.0	12.735
1114.0	12.743
1115.0	12.730
1116.0	12.719
1117.0	12.702
1118.0	12.708
1119.0	12.728
1120.0	12.715
1121.0	12.737
1122.0	12.710
1123.0	12.715
1124.0	12.672
1125.0	12.676
1126.0	12.666
1127.0	12.683
1128.0	12.675
1129.0	12.690
1130.0	12.702
1131.0	12.722
1132.0	12.709
1133.0	12.682
1134.0	12.678
1135.0	12.683
1136.0	12.681
1137.0	12.683
1138.0	12.688
1139.0	12.697
1140.0	12.684
1141.0	12.695
1142.0	12.715
1143.0	12.737
1144.0	12.715
1145.0	12.700
1146.0	12.691
1147.0	12.708
1148.0	12.706
1149.0	12.714
1150.0	12.709
1151.0	12.741
1152.0	12.751
1153.0	12.761
1154.0	12.745
1155.0	12.727
1156.0	12.725
1157.0	12.736
1158.0	12.753
1159.0	12.749
1160.0	12.750
1161.0	12.763
1162.0	12.783
1163.0	12.801
1164.0	12.791
1165.0	12.792
1166.0	12.792
1167.0	12.807
1168.0	12.825
1169.0	12.827
1170.0	12.849
1171.0	12.860
1172.0	12.851
1173.0	12.858
1174.0	12.850
1175.0	12.888
1176.0	12.864
1177.0	12.875
1178.0	12.883
1179.0	12.904
1180.0	12.920
1181.0	12.934
1182.0	12.931
1183.0	12.937
1184.0	12.911
1185.0	12.929
1186.0	12.936
1187.0	12.959
1188.0	12.977
1189.0	12.991
1190.0	12.986
1191.0	12.990
1192.0	12.991
1193.0	12.997
1194.0	13.018
1195.0	13.031
1196.0	13.076
1197.0	13.085
1198.0	13.097
1199.0	13.088
1200.0	13.073
1201.0	13.089
1202.0	13.121
1203.0	13.153
1204.0	13.161
1205.0	13.163
1206.0	13.182
1207.0	13.185
1208.0	13.197
1209.0	13.199
1210.0	13.240
1211.0	13.243
1212.0	13.254
1213.0	13.243
1214.0	13.261
1215.0	13.264
1216.0	13.291
1217.0	13.319
1218.0	13.352
1219.0	13.362
1220.0	13.392
1221.0	13.414
1222.0	13.454
1223.0	13.451
1224.0	13.471
1225.0	13.465
1226.0	13.470
1227.0	13.484
1228.0	13.502
1229.0	13.539
1230.0	13.547
1231.0	13.571
1232.0	13.559
1233.0	13.592
1234.0	13.609
1235.0	13.652
1236.0	13.678
1237.0	13.693
1238.0	13.720
1239.0	13.726
1240.0	13.737
1241.0	13.744
1242.0	13.761
1243.0	13.808
1244.0	13.817
1245.0	13.826
1246.0	13.833
1247.0	13.877
1248.0	13.930
1249.0	13.952
1250.0	13.951
1251.0	13.953
1252.0	13.969
1253.0	13.998
1254.0	14.031
1255.0	14.067
1256.0	14.090
1257.0	14.111
1258.0	14.104
1259.0	14.134
1260.0	14.138
1261.0	14.173
1262.0	14.177
1263.0	14.219
1264.0	14.254
1265.0	14.287
1266.0	14.299
1267.0	14.317
1268.0	14.318
1269.0	14.324
1270.0	14.338
1271.0	14.383
1272.0	14.413
1273.0	14.417
1274.0	14.429
1275.0	14.452
1276.0	14.483
1277.0	14.511
1278.0	14.529
1279.0	14.536
1280.0	14.566
1281.0	14.560
1282.0	14.597
1283.0	14.604
1284.0	14.647
1285.0	14.662
1286.0	14.667
1287.0	14.704
1288.0	14.726
1289.0	14.770
1290.0	14.780
1291.0	14.783
1292.0	14.767
1293.0	14.795
1294.0	14.852
1295.0	14.888
1296.0	14.903
1297.0	14.921
1298.0	14.968
1299.0	15.003
1300.0	14.999
1301.0	15.047
1302.0	15.068
1303.0	15.126
1304.0	15.114
1305.0	15.130
1306.0	15.155
1307.0	15.185
1308.0	15.220
1309.0	15.242
1310.0	15.293
1311.0	15.320
1312.0	15.329
1313.0	15.327
1314.0	15.375
1315.0	15.421
1316.0	15.480
1317.0	15.495
1318.0	15.542
1319.0	15.550
1320.0	15.573
1321.0	15.579
1322.0	15.609
1323.0	15.626
1324.0	15.642
1325.0	15.639
1326.0	15.680
1327.0	15.729
1328.0	15.786
1329.0	15.792
1330.0	15.795
1331.0	15.822
1332.0	15.858
1333.0	15.910
1334.0	15.924
1335.0	15.949
1336.0	15.946
1337.0	15.995
1338.0	16.024
1339.0	16.063
1340.0	16.083
1341.0	16.095
1342.0	16.116
1343.0	16.150
1344.0	16.214
1345.0	16.235
1346.0	16.256
1347.0	16.253
1348.0	16.295
1349.0	16.296
1350.0	16.321
1351.0	16.320
1352.0	16.344
1353.0	16.370
1354.0	16.405
1355.0	16.448
1356.0	16.466
1357.0	16.484
1358.0	16.501
1359.0	16.518
1360.0	16.532
1361.0	16.554
1362.0	16.575
1363.0	16.610
1364.0	16.637
1365.0	16.670
1366.0	16.727
1367.0	16.744
1368.0	16.782
1369.0	16.767
1370.0	16.799
1371.0	16.846
1372.0	16.914
1373.0	16.940
1374.0	16.965
1375.0	16.981
1376.0	17.040
1377.0	17.079
1378.0	17.089
1379.0	17.094
1380.0	17.113
1381.0	17.166
1382.0	17.200
1383.0	17.218
1384.0	17.251
1385.0	17.258
1386.0	17.310
1387.0	17.346
1388.0	17.404
1389.0	17.413
1390.0	17.443
1391.0	17.472
1392.0	17.520
1393.0	17.561
1394.0	17.611
1395.0	17.646
1396.0	17.688
1397.0	17.743
1398.0	17.808
1399.0	17.844
1400.0	17.852
1401.0	17.868
1402.0	17.913
1403.0	17.965
1404.0	18.015
1405.0	18.036
1406.0	18.093
1407.0	18.137
1408.0	18.177
1409.0	18.197
1410.0	18.213
1411.0	18.232
1412.0	18.294
1413.0	18.330
1414.0	18.392
1415.0	18.422
1416.0	18.455
1417.0	18.480
1418.0	18.489
1419.0	18.516
1420.0	18.567
1421.0	18.589
1422.0	18.631
1423.0	18.636
1424.0	18.669
1425.0	18.693
1426.0	18.693
1427.0	18.722
1428.0	18.746
1429.0	18.810
1430.0	18.821
1431.0	18.841
1432.0	18.851
1433.0	18.875
1434.0	18.936
1435.0	18.940
1436.0	18.977
1437.0	18.965
1438.0	19.025
1439.0	19.066
1440.0	19.093
1441.0	19.077
1442.0	19.068
1443.0	19.096
1444.0	19.135
1445.0	19.166
1446.0	19.146
1447.0	19.188
1448.0	19.199
1449.0	19.256
1450.0	19.256
1451.0	19.296
1452.0	19.311
1453.0	19.326
1454.0	19.320
1455.0	19.365
1456.0	19.421
1457.0	19.467
1458.0	19.452
1459.0	19.425
1460.0	19.446
1461.0	19.478
1462.0	19.500
1463.0	19.497
1464.0	19.487
1465.0	19.489
1466.0	19.497
1467.0	19.536
1468.0	19.543
1469.0	19.548
1470.0	19.554
1471.0	19.595
1472.0	19.601
1473.0	19.590
1474.0	19.579
1475.0	19.607
1476.0	19.642
1477.0	19.676
1478.0	19.646
1479.0	19.655
1480.0	19.624
1481.0	19.642
1482.0	19.641
1483.0	19.684
1484.0	19.707
1485.0	19.686
1486.0	19.698
1487.0	19.721
1488.0	19.741
1489.0	19.725
1490.0	19.727
1491.0	19.738
1492.0	19.720
1493.0	19.719
1494.0	19.720
1495.0	19.800
1496.0	19.832
1497.0	19.834
1498.0	19.815
1499.0	19.798
1500.0	19.822
1501.0	19.837
1502.0	19.866
1503.0	19.883
1504.0	19.895
1505.0	19.900
1506.0	19.917
1507.0	19.931
1508.0	19.951
1509.0	19.950
1510.0	19.906
1511.0	19.877
1512.0	19.868
1513.0	19.892
1514.0	19.889
1515.0	19.930
1516.0	19.971
1517.0	20.011
1518.0	19.995
1519.0	19.984
1520.0	19.968
1521.0	19.995
1522.0	19.995
1523.0	20.014
1524.0	20.017
1525.0	20.023
1526.0	20.041
1527.0	20.014
1528.0	20.049
1529.0	20.061
1530.0	20.143
1531.0	20.145
1532.0	20.159
1533.0	20.096
1534.0	20.098
1535.0	20.134
1536.0	20.164
1537.0	20.175
1538.0	20.145
1539.0	20.165
1540.0	20.209
1541.0	20.232
1542.0	20.245
1543.0	20.223
1544.0	20.205
1545.0	20.230
1546.0	20.248
1547.0	20.301
1548.0	20.300
1549.0	20.300
1550.0	20.327
1551.0	20.338
1552.0	20.354
1553.0	20.347
1554.0	20.326
1555.0	20.299
1556.0	20.282
1557.0	20.301
1558.0	20.346
1559.0	20.350
1560.0	20.376
1561.0	20.379
1562.0	20.407
1563.0	20.432
1564.0	20.434
1565.0	20.408
1566.0	20.380
1567.0	20.397
1568.0	20.486
1569.0	20.508
1570.0	20.542
1571.0	20.542
1572.0	20.599
1573.0	20.525
1574.0	20.471
1575.0	20.456
1576.0	20.568
1577.0	20.617
1578.0	20.650
1579.0	20.641
1580.0	20.677
1581.0	20.638
1582.0	20.650
1583.0	20.598
1584.0	20.644
1585.0	20.662
1586.0	20.767
1587.0	20.766
1588.0	20.753
1589.0	20.703
1590.0	20.693
1591.0	20.693
1592.0	20.711
1593.0	20.712
1594.0	20.760
1595.0	20.761
1596.0	20.796
1597.0	20.810
1598.0	20.854
1599.0	20.883
1600.0	20.883
