[SUMMARY]
Software Information
Software Name:	UVProbe
Version:	2.43
Mode:	Normal Mode

Data Information
Data is:	Original
Analyst:	
Date/Time:	06/03/2023 13:35:54
Comments:	

Instrument Information
Instrument Name:	SolidSpec3700
Instrument Type:	SolidSpec-3700 Series
Model (S/N):	SolidSpec3700 ( A11085100264CZ )

[METHOD]
[Measurement Properties]
Wavelength Range (nm.):	285,00 to 2000,00
Scan Speed:	Medium
Sampling Interval:	1,0
Auto Sampling Interval:	Disabled
Scan Mode:	Single

[Sample Preparation Properties]
Weight:	
Volume:	
Dilution:	
Path Length:	
Additional Information:	

[Instrument Properties]
Instrument Type:	SolidSpec-3700 Series
Measuring Mode:	Reflectance
Slit Width:	5,0 nm
Time Constant:	1,0 sec.
Source Lamp:	Auto
Light Source Change Wavelength:	282,00 nm
Detector Unit:	Integral Sphere
Detector Change Wavelength:	870,00 nm  1650,00 nm
Grating Change Wavelength:	800,00 nm
S/R Exchange:	Inverse
Detector Lock:	Auto
Slit Program:	Fixed
Beam Mode:	Double
Stair Correction:	Disable

[Attachment Properties]
Attachment:	None

[Operation]
Threshold:	0,0010000
Points:	4
InterPolate:	Disabled
Average:	Disabled

[DATA]
Wavelength	Data
285.0	5.467
286.0	5.513
287.0	5.621
288.0	5.650
289.0	5.722
290.0	5.735
291.0	5.817
292.0	5.845
293.0	5.929
294.0	5.893
295.0	5.964
296.0	5.929
297.0	5.999
298.0	5.975
299.0	5.972
300.0	5.946
301.0	6.023
302.0	6.066
303.0	6.071
304.0	6.018
305.0	6.053
306.0	6.117
307.0	6.114
308.0	6.101
309.0	6.065
310.0	6.091
311.0	6.072
312.0	6.085
313.0	6.050
314.0	6.055
315.0	6.008
316.0	6.016
317.0	5.989
318.0	6.008
319.0	6.001
320.0	6.007
321.0	5.988
322.0	5.946
323.0	5.894
324.0	5.856
325.0	5.843
326.0	5.833
327.0	5.819
328.0	5.757
329.0	5.748
330.0	5.708
331.0	5.686
332.0	5.612
333.0	5.597
334.0	5.584
335.0	5.575
336.0	5.525
337.0	5.490
338.0	5.454
339.0	5.449
340.0	5.413
341.0	5.375
342.0	5.315
343.0	5.266
344.0	5.214
345.0	5.170
346.0	5.159
347.0	5.121
348.0	5.086
349.0	5.025
350.0	4.988
351.0	4.932
352.0	4.894
353.0	4.871
354.0	4.835
355.0	4.775
356.0	4.722
357.0	4.688
358.0	4.652
359.0	4.612
360.0	4.557
361.0	4.524
362.0	4.503
363.0	4.492
364.0	4.451
365.0	4.403
366.0	4.364
367.0	4.358
368.0	4.341
369.0	4.318
370.0	4.272
371.0	4.256
372.0	4.246
373.0	4.254
374.0	4.234
375.0	4.233
376.0	4.230
377.0	4.243
378.0	4.241
379.0	4.252
380.0	4.269
381.0	4.291
382.0	4.310
383.0	4.312
384.0	4.315
385.0	4.336
386.0	4.361
387.0	4.386
388.0	4.405
389.0	4.425
390.0	4.434
391.0	4.453
392.0	4.465
393.0	4.486
394.0	4.498
395.0	4.512
396.0	4.527
397.0	4.531
398.0	4.549
399.0	4.548
400.0	4.542
401.0	4.522
402.0	4.522
403.0	4.521
404.0	4.526
405.0	4.532
406.0	4.536
407.0	4.533
408.0	4.525
409.0	4.525
410.0	4.519
411.0	4.519
412.0	4.510
413.0	4.525
414.0	4.526
415.0	4.528
416.0	4.521
417.0	4.526
418.0	4.543
419.0	4.560
420.0	4.559
421.0	4.561
422.0	4.547
423.0	4.549
424.0	4.548
425.0	4.553
426.0	4.557
427.0	4.555
428.0	4.542
429.0	4.528
430.0	4.501
431.0	4.494
432.0	4.477
433.0	4.464
434.0	4.441
435.0	4.406
436.0	4.378
437.0	4.351
438.0	4.330
439.0	4.298
440.0	4.265
441.0	4.227
442.0	4.190
443.0	4.151
444.0	4.115
445.0	4.083
446.0	4.048
447.0	4.025
448.0	3.991
449.0	3.954
450.0	3.922
451.0	3.899
452.0	3.870
453.0	3.839
454.0	3.803
455.0	3.780
456.0	3.749
457.0	3.721
458.0	3.699
459.0	3.682
460.0	3.667
461.0	3.650
462.0	3.635
463.0	3.620
464.0	3.603
465.0	3.590
466.0	3.582
467.0	3.577
468.0	3.572
469.0	3.564
470.0	3.559
471.0	3.544
472.0	3.537
473.0	3.532
474.0	3.536
475.0	3.538
476.0	3.538
477.0	3.534
478.0	3.527
479.0	3.522
480.0	3.527
481.0	3.525
482.0	3.524
483.0	3.518
484.0	3.519
485.0	3.522
486.0	3.529
487.0	3.535
488.0	3.532
489.0	3.533
490.0	3.535
491.0	3.541
492.0	3.543
493.0	3.553
494.0	3.558
495.0	3.569
496.0	3.571
497.0	3.579
498.0	3.577
499.0	3.579
500.0	3.585
501.0	3.588
502.0	3.593
503.0	3.592
504.0	3.596
505.0	3.596
506.0	3.591
507.0	3.589
508.0	3.595
509.0	3.602
510.0	3.606
511.0	3.603
512.0	3.604
513.0	3.594
514.0	3.589
515.0	3.585
516.0	3.586
517.0	3.584
518.0	3.576
519.0	3.567
520.0	3.562
521.0	3.563
522.0	3.558
523.0	3.553
524.0	3.541
525.0	3.538
526.0	3.526
527.0	3.516
528.0	3.499
529.0	3.487
530.0	3.473
531.0	3.464
532.0	3.458
533.0	3.444
534.0	3.429
535.0	3.409
536.0	3.398
537.0	3.388
538.0	3.373
539.0	3.353
540.0	3.337
541.0	3.327
542.0	3.315
543.0	3.293
544.0	3.277
545.0	3.268
546.0	3.260
547.0	3.241
548.0	3.224
549.0	3.222
550.0	3.210
551.0	3.196
552.0	3.175
553.0	3.175
554.0	3.166
555.0	3.160
556.0	3.143
557.0	3.134
558.0	3.122
559.0	3.117
560.0	3.108
561.0	3.096
562.0	3.083
563.0	3.075
564.0	3.069
565.0	3.064
566.0	3.059
567.0	3.059
568.0	3.054
569.0	3.049
570.0	3.044
571.0	3.038
572.0	3.036
573.0	3.032
574.0	3.034
575.0	3.038
576.0	3.042
577.0	3.044
578.0	3.045
579.0	3.049
580.0	3.059
581.0	3.072
582.0	3.079
583.0	3.083
584.0	3.085
585.0	3.097
586.0	3.110
587.0	3.122
588.0	3.129
589.0	3.147
590.0	3.163
591.0	3.188
592.0	3.201
593.0	3.211
594.0	3.217
595.0	3.233
596.0	3.252
597.0	3.277
598.0	3.296
599.0	3.324
600.0	3.353
601.0	3.377
602.0	3.402
603.0	3.418
604.0	3.444
605.0	3.469
606.0	3.497
607.0	3.522
608.0	3.550
609.0	3.571
610.0	3.604
611.0	3.635
612.0	3.669
613.0	3.695
614.0	3.722
615.0	3.753
616.0	3.790
617.0	3.829
618.0	3.866
619.0	3.901
620.0	3.932
621.0	3.976
622.0	4.014
623.0	4.054
624.0	4.091
625.0	4.130
626.0	4.175
627.0	4.221
628.0	4.266
629.0	4.308
630.0	4.338
631.0	4.376
632.0	4.413
633.0	4.459
634.0	4.504
635.0	4.537
636.0	4.576
637.0	4.626
638.0	4.682
639.0	4.723
640.0	4.762
641.0	4.801
642.0	4.851
643.0	4.894
644.0	4.947
645.0	4.997
646.0	5.049
647.0	5.098
648.0	5.153
649.0	5.199
650.0	5.248
651.0	5.283
652.0	5.327
653.0	5.369
654.0	5.427
655.0	5.482
656.0	5.531
657.0	5.568
658.0	5.608
659.0	5.645
660.0	5.690
661.0	5.732
662.0	5.772
663.0	5.814
664.0	5.856
665.0	5.902
666.0	5.953
667.0	5.997
668.0	6.059
669.0	6.122
670.0	6.182
671.0	6.234
672.0	6.273
673.0	6.343
674.0	6.400
675.0	6.451
676.0	6.488
677.0	6.545
678.0	6.618
679.0	6.667
680.0	6.706
681.0	6.750
682.0	6.805
683.0	6.849
684.0	6.888
685.0	6.924
686.0	6.974
687.0	7.012
688.0	7.063
689.0	7.107
690.0	7.165
691.0	7.196
692.0	7.236
693.0	7.260
694.0	7.313
695.0	7.364
696.0	7.416
697.0	7.457
698.0	7.498
699.0	7.530
700.0	7.576
701.0	7.612
702.0	7.668
703.0	7.701
704.0	7.751
705.0	7.765
706.0	7.812
707.0	7.867
708.0	7.918
709.0	7.941
710.0	7.952
711.0	7.997
712.0	8.070
713.0	8.108
714.0	8.157
715.0	8.177
716.0	8.228
717.0	8.259
718.0	8.312
719.0	8.364
720.0	8.414
721.0	8.442
722.0	8.484
723.0	8.518
724.0	8.574
725.0	8.613
726.0	8.676
727.0	8.731
728.0	8.767
729.0	8.810
730.0	8.845
731.0	8.902
732.0	8.938
733.0	8.998
734.0	9.039
735.0	9.089
736.0	9.110
737.0	9.151
738.0	9.192
739.0	9.241
740.0	9.309
741.0	9.352
742.0	9.429
743.0	9.478
744.0	9.557
745.0	9.601
746.0	9.642
747.0	9.688
748.0	9.750
749.0	9.807
750.0	9.834
751.0	9.846
752.0	9.875
753.0	9.936
754.0	9.995
755.0	10.058
756.0	10.111
757.0	10.153
758.0	10.188
759.0	10.182
760.0	10.213
761.0	10.238
762.0	10.325
763.0	10.387
764.0	10.429
765.0	10.452
766.0	10.484
767.0	10.540
768.0	10.621
769.0	10.661
770.0	10.708
771.0	10.710
772.0	10.762
773.0	10.802
774.0	10.828
775.0	10.817
776.0	10.832
777.0	10.850
778.0	10.920
779.0	10.939
780.0	11.000
781.0	11.009
782.0	11.064
783.0	11.116
784.0	11.149
785.0	11.187
786.0	11.156
787.0	11.216
788.0	11.245
789.0	11.331
790.0	11.336
791.0	11.365
792.0	11.363
793.0	11.460
794.0	11.503
795.0	11.579
796.0	11.563
797.0	11.613
798.0	11.606
799.0	11.671
800.0	11.737
801.0	11.857
802.0	11.934
803.0	11.984
804.0	12.017
805.0	12.050
806.0	12.085
807.0	12.131
808.0	12.168
809.0	12.187
810.0	12.227
811.0	12.252
812.0	12.297
813.0	12.324
814.0	12.379
815.0	12.408
816.0	12.447
817.0	12.490
818.0	12.557
819.0	12.604
820.0	12.618
821.0	12.630
822.0	12.635
823.0	12.664
824.0	12.679
825.0	12.753
826.0	12.798
827.0	12.871
828.0	12.907
829.0	12.964
830.0	13.017
831.0	13.040
832.0	13.072
833.0	13.083
834.0	13.115
835.0	13.154
836.0	13.207
837.0	13.261
838.0	13.300
839.0	13.335
840.0	13.352
841.0	13.393
842.0	13.399
843.0	13.455
844.0	13.473
845.0	13.501
846.0	13.539
847.0	13.589
848.0	13.648
849.0	13.642
850.0	13.609
851.0	13.673
852.0	13.769
853.0	13.829
854.0	13.815
855.0	13.799
856.0	13.793
857.0	13.796
858.0	13.829
859.0	13.936
860.0	13.983
861.0	14.026
862.0	14.001
863.0	14.086
864.0	14.161
865.0	14.208
866.0	14.205
867.0	14.205
868.0	14.286
869.0	14.142
870.0	14.168
871.0	14.357
872.0	14.833
873.0	14.928
874.0	15.106
875.0	14.769
876.0	14.896
877.0	14.631
878.0	15.126
879.0	14.938
880.0	15.126
881.0	15.059
882.0	15.393
883.0	15.405
884.0	15.305
885.0	15.151
886.0	15.131
887.0	14.994
888.0	14.902
889.0	14.953
890.0	14.928
891.0	15.081
892.0	15.125
893.0	15.293
894.0	15.427
895.0	15.304
896.0	15.321
897.0	15.195
898.0	15.121
899.0	15.130
900.0	15.120
901.0	15.395
902.0	15.393
903.0	15.564
904.0	15.464
905.0	15.504
906.0	15.417
907.0	15.505
908.0	15.590
909.0	15.499
910.0	15.381
911.0	15.328
912.0	15.469
913.0	15.560
914.0	15.515
915.0	15.456
916.0	15.382
917.0	15.437
918.0	15.407
919.0	15.362
920.0	15.432
921.0	15.463
922.0	15.527
923.0	15.402
924.0	15.405
925.0	15.392
926.0	15.409
927.0	15.488
928.0	15.522
929.0	15.603
930.0	15.521
931.0	15.557
932.0	15.522
933.0	15.520
934.0	15.458
935.0	15.441
936.0	15.499
937.0	15.629
938.0	15.638
939.0	15.610
940.0	15.509
941.0	15.565
942.0	15.562
943.0	15.583
944.0	15.551
945.0	15.590
946.0	15.577
947.0	15.583
948.0	15.549
949.0	15.561
950.0	15.516
951.0	15.567
952.0	15.591
953.0	15.654
954.0	15.634
955.0	15.644
956.0	15.656
957.0	15.678
958.0	15.639
959.0	15.588
960.0	15.574
961.0	15.600
962.0	15.651
963.0	15.637
964.0	15.651
965.0	15.670
966.0	15.693
967.0	15.716
968.0	15.690
969.0	15.722
970.0	15.716
971.0	15.723
972.0	15.736
973.0	15.692
974.0	15.705
975.0	15.647
976.0	15.651
977.0	15.630
978.0	15.621
979.0	15.625
980.0	15.619
981.0	15.620
982.0	15.642
983.0	15.630
984.0	15.642
985.0	15.663
986.0	15.692
987.0	15.704
988.0	15.660
989.0	15.659
990.0	15.631
991.0	15.626
992.0	15.621
993.0	15.665
994.0	15.669
995.0	15.635
996.0	15.592
997.0	15.580
998.0	15.568
999.0	15.585
1000.0	15.574
1001.0	15.622
1002.0	15.590
1003.0	15.614
1004.0	15.575
1005.0	15.582
1006.0	15.566
1007.0	15.563
1008.0	15.535
1009.0	15.541
1010.0	15.489
1011.0	15.492
1012.0	15.480
1013.0	15.519
1014.0	15.538
1015.0	15.512
1016.0	15.509
1017.0	15.497
1018.0	15.500
1019.0	15.489
1020.0	15.481
1021.0	15.457
1022.0	15.455
1023.0	15.454
1024.0	15.487
1025.0	15.483
1026.0	15.469
1027.0	15.409
1028.0	15.386
1029.0	15.367
1030.0	15.397
1031.0	15.390
1032.0	15.397
1033.0	15.355
1034.0	15.343
1035.0	15.330
1036.0	15.328
1037.0	15.304
1038.0	15.265
1039.0	15.251
1040.0	15.253
1041.0	15.254
1042.0	15.263
1043.0	15.249
1044.0	15.240
1045.0	15.222
1046.0	15.226
1047.0	15.209
1048.0	15.200
1049.0	15.173
1050.0	15.157
1051.0	15.152
1052.0	15.136
1053.0	15.154
1054.0	15.127
1055.0	15.129
1056.0	15.080
1057.0	15.093
1058.0	15.080
1059.0	15.092
1060.0	15.056
1061.0	15.029
1062.0	15.004
1063.0	15.006
1064.0	14.992
1065.0	14.973
1066.0	14.931
1067.0	14.939
1068.0	14.925
1069.0	14.914
1070.0	14.870
1071.0	14.886
1072.0	14.891
1073.0	14.870
1074.0	14.829
1075.0	14.786
1076.0	14.795
1077.0	14.783
1078.0	14.790
1079.0	14.764
1080.0	14.756
1081.0	14.752
1082.0	14.733
1083.0	14.725
1084.0	14.702
1085.0	14.704
1086.0	14.668
1087.0	14.631
1088.0	14.613
1089.0	14.611
1090.0	14.624
1091.0	14.597
1092.0	14.582
1093.0	14.547
1094.0	14.526
1095.0	14.510
1096.0	14.496
1097.0	14.495
1098.0	14.476
1099.0	14.455
1100.0	14.422
1101.0	14.388
1102.0	14.371
1103.0	14.356
1104.0	14.352
1105.0	14.346
1106.0	14.341
1107.0	14.330
1108.0	14.300
1109.0	14.271
1110.0	14.258
1111.0	14.245
1112.0	14.239
1113.0	14.204
1114.0	14.187
1115.0	14.174
1116.0	14.157
1117.0	14.146
1118.0	14.132
1119.0	14.141
1120.0	14.119
1121.0	14.098
1122.0	14.056
1123.0	14.055
1124.0	14.032
1125.0	14.032
1126.0	14.002
1127.0	13.986
1128.0	13.964
1129.0	13.952
1130.0	13.965
1131.0	13.955
1132.0	13.959
1133.0	13.934
1134.0	13.925
1135.0	13.923
1136.0	13.893
1137.0	13.870
1138.0	13.849
1139.0	13.850
1140.0	13.854
1141.0	13.848
1142.0	13.852
1143.0	13.853
1144.0	13.849
1145.0	13.823
1146.0	13.795
1147.0	13.772
1148.0	13.769
1149.0	13.771
1150.0	13.760
1151.0	13.749
1152.0	13.725
1153.0	13.724
1154.0	13.721
1155.0	13.729
1156.0	13.724
1157.0	13.727
1158.0	13.719
1159.0	13.707
1160.0	13.682
1161.0	13.675
1162.0	13.673
1163.0	13.678
1164.0	13.667
1165.0	13.650
1166.0	13.646
1167.0	13.645
1168.0	13.639
1169.0	13.633
1170.0	13.640
1171.0	13.642
1172.0	13.644
1173.0	13.634
1174.0	13.629
1175.0	13.640
1176.0	13.620
1177.0	13.623
1178.0	13.612
1179.0	13.636
1180.0	13.626
1181.0	13.623
1182.0	13.610
1183.0	13.624
1184.0	13.609
1185.0	13.606
1186.0	13.602
1187.0	13.609
1188.0	13.607
1189.0	13.604
1190.0	13.615
1191.0	13.628
1192.0	13.645
1193.0	13.639
1194.0	13.648
1195.0	13.635
1196.0	13.638
1197.0	13.639
1198.0	13.636
1199.0	13.660
1200.0	13.664
1201.0	13.678
1202.0	13.680
1203.0	13.684
1204.0	13.699
1205.0	13.690
1206.0	13.694
1207.0	13.703
1208.0	13.735
1209.0	13.764
1210.0	13.772
1211.0	13.757
1212.0	13.775
1213.0	13.787
1214.0	13.805
1215.0	13.790
1216.0	13.802
1217.0	13.832
1218.0	13.851
1219.0	13.882
1220.0	13.867
1221.0	13.893
1222.0	13.895
1223.0	13.925
1224.0	13.927
1225.0	13.944
1226.0	13.959
1227.0	13.990
1228.0	14.015
1229.0	14.029
1230.0	14.060
1231.0	14.060
1232.0	14.085
1233.0	14.092
1234.0	14.118
1235.0	14.148
1236.0	14.169
1237.0	14.190
1238.0	14.217
1239.0	14.212
1240.0	14.236
1241.0	14.254
1242.0	14.288
1243.0	14.311
1244.0	14.330
1245.0	14.371
1246.0	14.394
1247.0	14.410
1248.0	14.422
1249.0	14.439
1250.0	14.477
1251.0	14.516
1252.0	14.551
1253.0	14.570
1254.0	14.596
1255.0	14.634
1256.0	14.671
1257.0	14.667
1258.0	14.672
1259.0	14.680
1260.0	14.744
1261.0	14.777
1262.0	14.813
1263.0	14.822
1264.0	14.848
1265.0	14.852
1266.0	14.887
1267.0	14.904
1268.0	14.940
1269.0	14.956
1270.0	14.973
1271.0	15.012
1272.0	15.017
1273.0	15.058
1274.0	15.106
1275.0	15.166
1276.0	15.207
1277.0	15.194
1278.0	15.212
1279.0	15.236
1280.0	15.267
1281.0	15.293
1282.0	15.323
1283.0	15.371
1284.0	15.400
1285.0	15.432
1286.0	15.455
1287.0	15.484
1288.0	15.510
1289.0	15.544
1290.0	15.578
1291.0	15.602
1292.0	15.626
1293.0	15.665
1294.0	15.697
1295.0	15.737
1296.0	15.766
1297.0	15.820
1298.0	15.843
1299.0	15.899
1300.0	15.923
1301.0	15.974
1302.0	16.008
1303.0	16.042
1304.0	16.098
1305.0	16.118
1306.0	16.184
1307.0	16.215
1308.0	16.250
1309.0	16.269
1310.0	16.286
1311.0	16.331
1312.0	16.367
1313.0	16.401
1314.0	16.440
1315.0	16.470
1316.0	16.538
1317.0	16.554
1318.0	16.600
1319.0	16.604
1320.0	16.663
1321.0	16.704
1322.0	16.777
1323.0	16.804
1324.0	16.862
1325.0	16.897
1326.0	16.950
1327.0	16.964
1328.0	16.984
1329.0	17.027
1330.0	17.083
1331.0	17.111
1332.0	17.145
1333.0	17.169
1334.0	17.242
1335.0	17.269
1336.0	17.292
1337.0	17.312
1338.0	17.378
1339.0	17.423
1340.0	17.469
1341.0	17.483
1342.0	17.540
1343.0	17.565
1344.0	17.615
1345.0	17.652
1346.0	17.675
1347.0	17.717
1348.0	17.739
1349.0	17.790
1350.0	17.823
1351.0	17.861
1352.0	17.896
1353.0	17.926
1354.0	17.971
1355.0	18.010
1356.0	18.047
1357.0	18.060
1358.0	18.091
1359.0	18.144
1360.0	18.188
1361.0	18.243
1362.0	18.244
1363.0	18.306
1364.0	18.319
1365.0	18.371
1366.0	18.411
1367.0	18.484
1368.0	18.509
1369.0	18.541
1370.0	18.578
1371.0	18.632
1372.0	18.653
1373.0	18.683
1374.0	18.740
1375.0	18.783
1376.0	18.829
1377.0	18.873
1378.0	18.913
1379.0	18.968
1380.0	19.017
1381.0	19.083
1382.0	19.138
1383.0	19.188
1384.0	19.237
1385.0	19.299
1386.0	19.338
1387.0	19.378
1388.0	19.414
1389.0	19.486
1390.0	19.541
1391.0	19.596
1392.0	19.639
1393.0	19.717
1394.0	19.755
1395.0	19.787
1396.0	19.836
1397.0	19.886
1398.0	19.952
1399.0	19.978
1400.0	20.028
1401.0	20.059
1402.0	20.141
1403.0	20.213
1404.0	20.286
1405.0	20.299
1406.0	20.359
1407.0	20.432
1408.0	20.529
1409.0	20.545
1410.0	20.567
1411.0	20.607
1412.0	20.675
1413.0	20.720
1414.0	20.768
1415.0	20.793
1416.0	20.845
1417.0	20.891
1418.0	20.966
1419.0	21.022
1420.0	21.064
1421.0	21.083
1422.0	21.128
1423.0	21.160
1424.0	21.204
1425.0	21.229
1426.0	21.235
1427.0	21.262
1428.0	21.344
1429.0	21.441
1430.0	21.494
1431.0	21.496
1432.0	21.514
1433.0	21.546
1434.0	21.589
1435.0	21.620
1436.0	21.684
1437.0	21.713
1438.0	21.753
1439.0	21.777
1440.0	21.801
1441.0	21.835
1442.0	21.871
1443.0	21.930
1444.0	21.958
1445.0	21.997
1446.0	22.019
1447.0	22.067
1448.0	22.079
1449.0	22.078
1450.0	22.092
1451.0	22.129
1452.0	22.206
1453.0	22.254
1454.0	22.286
1455.0	22.267
1456.0	22.298
1457.0	22.332
1458.0	22.360
1459.0	22.382
1460.0	22.403
1461.0	22.435
1462.0	22.469
1463.0	22.476
1464.0	22.545
1465.0	22.517
1466.0	22.530
1467.0	22.527
1468.0	22.589
1469.0	22.613
1470.0	22.638
1471.0	22.648
1472.0	22.695
1473.0	22.718
1474.0	22.712
1475.0	22.730
1476.0	22.759
1477.0	22.804
1478.0	22.838
1479.0	22.862
1480.0	22.881
1481.0	22.902
1482.0	22.913
1483.0	22.913
1484.0	22.896
1485.0	22.898
1486.0	22.954
1487.0	22.953
1488.0	23.011
1489.0	23.015
1490.0	23.075
1491.0	23.082
1492.0	23.095
1493.0	23.063
1494.0	23.057
1495.0	23.099
1496.0	23.152
1497.0	23.171
1498.0	23.180
1499.0	23.201
1500.0	23.224
1501.0	23.210
1502.0	23.235
1503.0	23.248
1504.0	23.285
1505.0	23.310
1506.0	23.345
1507.0	23.364
1508.0	23.390
1509.0	23.408
1510.0	23.388
1511.0	23.367
1512.0	23.358
1513.0	23.435
1514.0	23.465
1515.0	23.495
1516.0	23.480
1517.0	23.499
1518.0	23.548
1519.0	23.564
1520.0	23.594
1521.0	23.559
1522.0	23.549
1523.0	23.555
1524.0	23.581
1525.0	23.652
1526.0	23.651
1527.0	23.659
1528.0	23.641
1529.0	23.684
1530.0	23.708
1531.0	23.767
1532.0	23.803
1533.0	23.818
1534.0	23.776
1535.0	23.742
1536.0	23.780
1537.0	23.862
1538.0	23.877
1539.0	23.908
1540.0	23.879
1541.0	23.931
1542.0	23.928
1543.0	23.972
1544.0	23.963
1545.0	23.998
1546.0	24.021
1547.0	24.059
1548.0	24.071
1549.0	24.071
1550.0	24.080
1551.0	24.092
1552.0	24.108
1553.0	24.155
1554.0	24.206
1555.0	24.208
1556.0	24.186
1557.0	24.171
1558.0	24.237
1559.0	24.281
1560.0	24.288
1561.0	24.278
1562.0	24.307
1563.0	24.325
1564.0	24.366
1565.0	24.350
1566.0	24.366
1567.0	24.342
1568.0	24.338
1569.0	24.393
1570.0	24.448
1571.0	24.496
1572.0	24.503
1573.0	24.488
1574.0	24.491
1575.0	24.535
1576.0	24.537
1577.0	24.599
1578.0	24.572
1579.0	24.623
1580.0	24.620
1581.0	24.641
1582.0	24.638
1583.0	24.657
1584.0	24.652
1585.0	24.683
1586.0	24.713
1587.0	24.715
1588.0	24.725
1589.0	24.758
1590.0	24.831
1591.0	24.852
1592.0	24.820
1593.0	24.822
1594.0	24.854
1595.0	24.902
1596.0	24.936
1597.0	24.943
1598.0	24.947
1599.0	24.983
1600.0	25.025
1601.0	25.028
1602.0	25.052
1603.0	25.039
1604.0	25.059
1605.0	25.013
1606.0	25.050
1607.0	25.039
1608.0	25.097
1609.0	25.109
1610.0	25.214
1611.0	25.224
1612.0	25.246
1613.0	25.196
1614.0	25.226
1615.0	25.245
1616.0	25.269
1617.0	25.239
1618.0	25.208
1619.0	25.260
1620.0	25.339
1621.0	25.395
1622.0	25.366
1623.0	25.318
1624.0	25.340
1625.0	25.361
1626.0	25.390
1627.0	25.418
1628.0	25.459
1629.0	25.472
1630.0	25.479
1631.0	25.452
1632.0	25.511
1633.0	25.472
1634.0	25.542
1635.0	25.521
1636.0	25.549
1637.0	25.573
1638.0	25.591
1639.0	25.710
1640.0	25.757
1641.0	25.757
1642.0	25.729
1643.0	25.666
1644.0	25.686
1645.0	25.653
1646.0	25.716
1647.0	25.819
1648.0	25.861
1649.0	25.817
1650.0	24.815
1651.0	23.647
1652.0	22.286
1653.0	21.928
1654.0	21.793
1655.0	21.593
1656.0	21.751
1657.0	21.467
1658.0	22.193
1659.0	22.356
1660.0	22.863
1661.0	23.004
1662.0	23.120
1663.0	23.096
1664.0	22.652
1665.0	22.194
1666.0	22.142
1667.0	22.436
1668.0	22.539
1669.0	22.197
1670.0	21.930
1671.0	22.129
1672.0	22.648
1673.0	22.980
1674.0	22.706
1675.0	23.006
1676.0	23.090
1677.0	23.445
1678.0	23.217
1679.0	22.774
1680.0	22.796
1681.0	22.714
1682.0	22.707
1683.0	22.592
1684.0	22.446
1685.0	22.073
1686.0	21.863
1687.0	22.089
1688.0	22.684
1689.0	22.877
1690.0	22.906
1691.0	22.882
1692.0	22.719
1693.0	22.900
1694.0	22.844
1695.0	23.257
1696.0	22.914
1697.0	22.684
1698.0	22.214
1699.0	22.626
1700.0	22.709
1701.0	23.434
1702.0	22.853
1703.0	23.156
1704.0	22.271
1705.0	23.007
1706.0	22.505
1707.0	23.278
1708.0	22.491
1709.0	23.047
1710.0	22.815
1711.0	23.268
1712.0	23.071
1713.0	23.073
1714.0	22.700
1715.0	22.419
1716.0	22.517
1717.0	22.567
1718.0	22.844
1719.0	22.272
1720.0	22.605
1721.0	22.528
1722.0	23.024
1723.0	23.079
1724.0	23.682
1725.0	23.910
1726.0	23.706
1727.0	23.263
1728.0	23.079
1729.0	23.021
1730.0	23.594
1731.0	23.229
1732.0	23.019
1733.0	22.648
1734.0	23.515
1735.0	24.033
1736.0	24.059
1737.0	23.205
1738.0	22.776
1739.0	22.230
1740.0	22.417
1741.0	22.196
1742.0	22.846
1743.0	22.902
1744.0	24.095
1745.0	23.929
1746.0	24.300
1747.0	23.373
1748.0	23.109
1749.0	23.045
1750.0	23.117
1751.0	23.887
1752.0	23.512
1753.0	23.610
1754.0	22.867
1755.0	23.732
1756.0	24.110
1757.0	24.674
1758.0	23.840
1759.0	23.558
1760.0	22.844
1761.0	23.375
1762.0	23.834
1763.0	24.102
1764.0	23.695
1765.0	23.115
1766.0	22.992
1767.0	23.155
1768.0	23.154
1769.0	24.125
1770.0	24.364
1771.0	24.357
1772.0	22.878
1773.0	22.258
1774.0	22.800
1775.0	24.053
1776.0	24.435
1777.0	24.164
1778.0	23.765
1779.0	24.177
1780.0	24.912
1781.0	24.856
1782.0	24.591
1783.0	23.678
1784.0	23.353
1785.0	23.559
1786.0	24.196
1787.0	25.252
1788.0	25.197
1789.0	25.522
1790.0	24.883
1791.0	24.387
1792.0	23.204
1793.0	23.291
1794.0	24.791
1795.0	24.769
1796.0	25.022
1797.0	24.071
1798.0	24.399
1799.0	23.879
1800.0	23.519
1801.0	24.084
1802.0	23.388
1803.0	23.835
1804.0	23.244
1805.0	24.132
1806.0	24.146
1807.0	23.902
1808.0	23.958
1809.0	23.726
1810.0	24.080
1811.0	23.988
1812.0	24.045
1813.0	25.303
1814.0	24.933
1815.0	24.797
1816.0	24.096
1817.0	24.722
1818.0	26.183
1819.0	25.238
1820.0	25.829
1821.0	24.283
1822.0	25.371
1823.0	25.344
1824.0	24.777
1825.0	25.214
1826.0	24.972
1827.0	25.948
1828.0	24.923
1829.0	24.400
1830.0	24.029
1831.0	24.846
1832.0	24.220
1833.0	24.743
1834.0	23.918
1835.0	24.114
1836.0	23.470
1837.0	24.107
1838.0	23.809
1839.0	24.257
1840.0	23.666
1841.0	24.288
1842.0	24.474
1843.0	24.458
1844.0	25.061
1845.0	24.326
1846.0	24.868
1847.0	25.430
1848.0	25.959
1849.0	25.287
1850.0	24.415
1851.0	24.057
1852.0	24.547
1853.0	25.082
1854.0	24.886
1855.0	25.249
1856.0	24.567
1857.0	24.876
1858.0	24.384
1859.0	23.426
1860.0	24.173
1861.0	24.196
1862.0	25.244
1863.0	25.245
1864.0	24.962
1865.0	24.194
1866.0	23.526
1867.0	23.805
1868.0	25.392
1869.0	24.629
1870.0	24.366
1871.0	24.163
1872.0	25.375
1873.0	26.314
1874.0	26.151
1875.0	24.979
1876.0	24.490
1877.0	24.272
1878.0	24.719
1879.0	24.579
1880.0	23.879
1881.0	25.449
1882.0	24.796
1883.0	26.199
1884.0	25.694
1885.0	27.106
1886.0	26.885
1887.0	26.191
1888.0	26.489
1889.0	26.621
1890.0	27.371
1891.0	25.890
1892.0	26.179
1893.0	25.571
1894.0	27.215
1895.0	27.411
1896.0	28.092
1897.0	26.709
1898.0	26.616
1899.0	26.543
1900.0	27.078
1901.0	27.200
1902.0	27.052
1903.0	28.404
1904.0	28.221
1905.0	29.811
1906.0	29.867
1907.0	29.471
1908.0	28.499
1909.0	28.186
1910.0	27.857
1911.0	27.325
1912.0	27.554
1913.0	28.534
1914.0	28.017
1915.0	27.719
1916.0	26.434
1917.0	26.292
1918.0	25.850
1919.0	27.875
1920.0	29.187
1921.0	28.697
1922.0	27.934
1923.0	27.876
1924.0	28.987
1925.0	29.482
1926.0	29.258
1927.0	28.607
1928.0	28.287
1929.0	29.429
1930.0	29.913
1931.0	29.713
1932.0	28.969
1933.0	29.263
1934.0	29.461
1935.0	29.411
1936.0	29.736
1937.0	29.497
1938.0	29.241
1939.0	28.515
1940.0	29.624
1941.0	28.859
1942.0	28.804
1943.0	27.756
1944.0	29.006
1945.0	28.280
1946.0	28.615
1947.0	29.370
1948.0	31.330
1949.0	31.610
1950.0	30.675
1951.0	29.715
1952.0	29.066
1953.0	27.973
1954.0	27.929
1955.0	27.673
1956.0	28.823
1957.0	29.293
1958.0	30.160
1959.0	30.598
1960.0	29.119
1961.0	29.092
1962.0	28.447
1963.0	29.096
1964.0	28.260
1965.0	28.246
1966.0	28.080
1967.0	27.671
1968.0	27.280
1969.0	28.039
1970.0	27.829
1971.0	28.169
1972.0	27.965
1973.0	28.342
1974.0	27.925
1975.0	27.722
1976.0	28.306
1977.0	28.510
1978.0	27.276
1979.0	28.180
1980.0	27.670
1981.0	29.299
1982.0	28.528
1983.0	29.075
1984.0	28.525
1985.0	28.176
1986.0	27.153
1987.0	26.969
1988.0	26.016
1989.0	28.282
1990.0	28.781
1991.0	29.591
1992.0	28.042
1993.0	28.280
1994.0	27.948
1995.0	29.615
1996.0	30.401
1997.0	29.888
1998.0	28.607
1999.0	26.203
2000.0	26.252
