[SUMMARY]
Software Information
Software Name:	UVProbe
Version:	2.43
Mode:	Normal Mode

Data Information
Data is:	Original
Analyst:	
Date/Time:	06/03/2023 13:21:33
Comments:	

Instrument Information
Instrument Name:	SolidSpec3700
Instrument Type:	SolidSpec-3700 Series
Model (S/N):	SolidSpec3700 ( A11085100264CZ )

[METHOD]
[Measurement Properties]
Wavelength Range (nm.):	285,00 to 2000,00
Scan Speed:	Medium
Sampling Interval:	1,0
Auto Sampling Interval:	Disabled
Scan Mode:	Single

[Sample Preparation Properties]
Weight:	
Volume:	
Dilution:	
Path Length:	
Additional Information:	

[Instrument Properties]
Instrument Type:	SolidSpec-3700 Series
Measuring Mode:	Reflectance
Slit Width:	5,0 nm
Time Constant:	1,0 sec.
Source Lamp:	Auto
Light Source Change Wavelength:	282,00 nm
Detector Unit:	Integral Sphere
Detector Change Wavelength:	870,00 nm  1650,00 nm
Grating Change Wavelength:	800,00 nm
S/R Exchange:	Inverse
Detector Lock:	Auto
Slit Program:	Fixed
Beam Mode:	Double
Stair Correction:	Disable

[Attachment Properties]
Attachment:	None

[Operation]
Threshold:	0,0010000
Points:	4
InterPolate:	Disabled
Average:	Disabled

[DATA]
Wavelength	Data
285.0	4.783
286.0	4.816
287.0	4.873
288.0	4.916
289.0	4.998
290.0	5.021
291.0	5.070
292.0	5.075
293.0	5.144
294.0	5.187
295.0	5.238
296.0	5.237
297.0	5.208
298.0	5.196
299.0	5.238
300.0	5.242
301.0	5.220
302.0	5.196
303.0	5.240
304.0	5.269
305.0	5.260
306.0	5.237
307.0	5.259
308.0	5.278
309.0	5.277
310.0	5.240
311.0	5.254
312.0	5.266
313.0	5.265
314.0	5.247
315.0	5.239
316.0	5.245
317.0	5.220
318.0	5.231
319.0	5.250
320.0	5.276
321.0	5.273
322.0	5.231
323.0	5.193
324.0	5.188
325.0	5.215
326.0	5.235
327.0	5.201
328.0	5.203
329.0	5.198
330.0	5.229
331.0	5.244
332.0	5.280
333.0	5.302
334.0	5.309
335.0	5.294
336.0	5.290
337.0	5.276
338.0	5.291
339.0	5.297
340.0	5.319
341.0	5.327
342.0	5.336
343.0	5.336
344.0	5.330
345.0	5.334
346.0	5.326
347.0	5.322
348.0	5.293
349.0	5.280
350.0	5.264
351.0	5.277
352.0	5.283
353.0	5.293
354.0	5.297
355.0	5.284
356.0	5.246
357.0	5.214
358.0	5.196
359.0	5.192
360.0	5.160
361.0	5.142
362.0	5.123
363.0	5.110
364.0	5.085
365.0	5.058
366.0	5.023
367.0	4.988
368.0	4.972
369.0	4.935
370.0	4.907
371.0	4.880
372.0	4.880
373.0	4.849
374.0	4.811
375.0	4.777
376.0	4.763
377.0	4.732
378.0	4.695
379.0	4.648
380.0	4.628
381.0	4.611
382.0	4.595
383.0	4.564
384.0	4.526
385.0	4.503
386.0	4.470
387.0	4.439
388.0	4.394
389.0	4.354
390.0	4.320
391.0	4.288
392.0	4.263
393.0	4.241
394.0	4.214
395.0	4.183
396.0	4.152
397.0	4.120
398.0	4.096
399.0	4.070
400.0	4.045
401.0	4.006
402.0	3.973
403.0	3.942
404.0	3.920
405.0	3.878
406.0	3.847
407.0	3.821
408.0	3.803
409.0	3.782
410.0	3.749
411.0	3.713
412.0	3.678
413.0	3.656
414.0	3.647
415.0	3.633
416.0	3.610
417.0	3.584
418.0	3.560
419.0	3.547
420.0	3.534
421.0	3.517
422.0	3.495
423.0	3.474
424.0	3.461
425.0	3.455
426.0	3.440
427.0	3.423
428.0	3.411
429.0	3.401
430.0	3.399
431.0	3.398
432.0	3.392
433.0	3.393
434.0	3.384
435.0	3.389
436.0	3.390
437.0	3.386
438.0	3.389
439.0	3.393
440.0	3.393
441.0	3.397
442.0	3.403
443.0	3.421
444.0	3.434
445.0	3.439
446.0	3.450
447.0	3.469
448.0	3.495
449.0	3.520
450.0	3.532
451.0	3.548
452.0	3.566
453.0	3.587
454.0	3.614
455.0	3.639
456.0	3.666
457.0	3.695
458.0	3.724
459.0	3.755
460.0	3.783
461.0	3.818
462.0	3.850
463.0	3.885
464.0	3.914
465.0	3.953
466.0	3.985
467.0	4.022
468.0	4.059
469.0	4.100
470.0	4.142
471.0	4.183
472.0	4.234
473.0	4.289
474.0	4.341
475.0	4.390
476.0	4.445
477.0	4.515
478.0	4.572
479.0	4.623
480.0	4.669
481.0	4.729
482.0	4.796
483.0	4.860
484.0	4.928
485.0	4.988
486.0	5.045
487.0	5.100
488.0	5.166
489.0	5.237
490.0	5.304
491.0	5.364
492.0	5.432
493.0	5.502
494.0	5.571
495.0	5.637
496.0	5.715
497.0	5.800
498.0	5.882
499.0	5.967
500.0	6.049
501.0	6.133
502.0	6.213
503.0	6.301
504.0	6.401
505.0	6.494
506.0	6.581
507.0	6.663
508.0	6.751
509.0	6.852
510.0	6.943
511.0	7.026
512.0	7.106
513.0	7.191
514.0	7.291
515.0	7.385
516.0	7.470
517.0	7.557
518.0	7.654
519.0	7.758
520.0	7.856
521.0	7.954
522.0	8.043
523.0	8.142
524.0	8.243
525.0	8.344
526.0	8.440
527.0	8.535
528.0	8.643
529.0	8.736
530.0	8.839
531.0	8.949
532.0	9.068
533.0	9.171
534.0	9.273
535.0	9.382
536.0	9.478
537.0	9.576
538.0	9.673
539.0	9.781
540.0	9.893
541.0	9.982
542.0	10.083
543.0	10.165
544.0	10.270
545.0	10.372
546.0	10.474
547.0	10.577
548.0	10.669
549.0	10.764
550.0	10.859
551.0	10.951
552.0	11.040
553.0	11.133
554.0	11.230
555.0	11.314
556.0	11.398
557.0	11.474
558.0	11.557
559.0	11.633
560.0	11.711
561.0	11.790
562.0	11.866
563.0	11.941
564.0	12.018
565.0	12.076
566.0	12.146
567.0	12.205
568.0	12.285
569.0	12.351
570.0	12.429
571.0	12.500
572.0	12.562
573.0	12.625
574.0	12.689
575.0	12.770
576.0	12.828
577.0	12.904
578.0	12.976
579.0	13.064
580.0	13.146
581.0	13.228
582.0	13.318
583.0	13.395
584.0	13.482
585.0	13.558
586.0	13.651
587.0	13.733
588.0	13.808
589.0	13.889
590.0	13.955
591.0	14.050
592.0	14.132
593.0	14.230
594.0	14.321
595.0	14.400
596.0	14.475
597.0	14.541
598.0	14.624
599.0	14.712
600.0	14.786
601.0	14.853
602.0	14.919
603.0	15.000
604.0	15.069
605.0	15.133
606.0	15.183
607.0	15.221
608.0	15.254
609.0	15.291
610.0	15.340
611.0	15.376
612.0	15.409
613.0	15.423
614.0	15.456
615.0	15.491
616.0	15.539
617.0	15.576
618.0	15.588
619.0	15.595
620.0	15.582
621.0	15.585
622.0	15.579
623.0	15.582
624.0	15.572
625.0	15.575
626.0	15.573
627.0	15.584
628.0	15.592
629.0	15.600
630.0	15.588
631.0	15.569
632.0	15.542
633.0	15.540
634.0	15.535
635.0	15.542
636.0	15.538
637.0	15.547
638.0	15.560
639.0	15.570
640.0	15.596
641.0	15.632
642.0	15.641
643.0	15.657
644.0	15.663
645.0	15.727
646.0	15.769
647.0	15.827
648.0	15.877
649.0	15.947
650.0	16.005
651.0	16.070
652.0	16.137
653.0	16.225
654.0	16.293
655.0	16.364
656.0	16.438
657.0	16.522
658.0	16.601
659.0	16.666
660.0	16.720
661.0	16.792
662.0	16.853
663.0	16.941
664.0	17.013
665.0	17.107
666.0	17.191
667.0	17.265
668.0	17.362
669.0	17.452
670.0	17.549
671.0	17.603
672.0	17.664
673.0	17.715
674.0	17.789
675.0	17.826
676.0	17.867
677.0	17.892
678.0	17.942
679.0	17.965
680.0	17.979
681.0	17.974
682.0	18.000
683.0	17.989
684.0	17.995
685.0	17.969
686.0	17.957
687.0	17.918
688.0	17.895
689.0	17.874
690.0	17.820
691.0	17.751
692.0	17.676
693.0	17.651
694.0	17.608
695.0	17.571
696.0	17.500
697.0	17.426
698.0	17.363
699.0	17.322
700.0	17.305
701.0	17.234
702.0	17.199
703.0	17.172
704.0	17.183
705.0	17.172
706.0	17.148
707.0	17.153
708.0	17.150
709.0	17.174
710.0	17.205
711.0	17.259
712.0	17.344
713.0	17.451
714.0	17.587
715.0	17.691
716.0	17.811
717.0	17.934
718.0	18.101
719.0	18.284
720.0	18.460
721.0	18.605
722.0	18.734
723.0	18.857
724.0	19.000
725.0	19.135
726.0	19.251
727.0	19.383
728.0	19.446
729.0	19.569
730.0	19.647
731.0	19.731
732.0	19.797
733.0	19.855
734.0	19.930
735.0	19.966
736.0	20.005
737.0	20.056
738.0	20.053
739.0	20.082
740.0	20.082
741.0	20.086
742.0	20.027
743.0	19.991
744.0	19.978
745.0	19.929
746.0	19.859
747.0	19.807
748.0	19.783
749.0	19.750
750.0	19.645
751.0	19.577
752.0	19.495
753.0	19.450
754.0	19.368
755.0	19.293
756.0	19.226
757.0	19.122
758.0	19.013
759.0	18.884
760.0	18.816
761.0	18.709
762.0	18.639
763.0	18.532
764.0	18.442
765.0	18.303
766.0	18.207
767.0	18.100
768.0	18.014
769.0	17.887
770.0	17.783
771.0	17.680
772.0	17.604
773.0	17.525
774.0	17.433
775.0	17.344
776.0	17.227
777.0	17.126
778.0	17.017
779.0	16.910
780.0	16.776
781.0	16.613
782.0	16.475
783.0	16.381
784.0	16.332
785.0	16.235
786.0	16.102
787.0	15.964
788.0	15.911
789.0	15.831
790.0	15.742
791.0	15.660
792.0	15.572
793.0	15.508
794.0	15.389
795.0	15.346
796.0	15.231
797.0	15.157
798.0	15.056
799.0	14.964
800.0	14.679
801.0	14.394
802.0	14.129
803.0	14.056
804.0	13.963
805.0	13.891
806.0	13.780
807.0	13.701
808.0	13.615
809.0	13.547
810.0	13.452
811.0	13.372
812.0	13.295
813.0	13.214
814.0	13.132
815.0	13.035
816.0	12.944
817.0	12.870
818.0	12.815
819.0	12.767
820.0	12.668
821.0	12.584
822.0	12.476
823.0	12.425
824.0	12.348
825.0	12.313
826.0	12.262
827.0	12.195
828.0	12.105
829.0	12.023
830.0	11.972
831.0	11.916
832.0	11.826
833.0	11.754
834.0	11.701
835.0	11.647
836.0	11.575
837.0	11.496
838.0	11.454
839.0	11.413
840.0	11.345
841.0	11.285
842.0	11.209
843.0	11.159
844.0	11.114
845.0	11.076
846.0	11.032
847.0	10.948
848.0	10.889
849.0	10.783
850.0	10.743
851.0	10.701
852.0	10.699
853.0	10.617
854.0	10.580
855.0	10.520
856.0	10.459
857.0	10.362
858.0	10.271
859.0	10.245
860.0	10.222
861.0	10.180
862.0	10.118
863.0	10.013
864.0	9.947
865.0	9.845
866.0	9.902
867.0	9.882
868.0	9.946
869.0	9.828
870.0	10.137
871.0	10.035
872.0	10.287
873.0	9.968
874.0	9.951
875.0	9.748
876.0	9.786
877.0	9.960
878.0	9.987
879.0	10.066
880.0	10.122
881.0	9.926
882.0	9.950
883.0	9.683
884.0	9.769
885.0	9.701
886.0	9.782
887.0	9.463
888.0	9.155
889.0	9.094
890.0	9.298
891.0	9.453
892.0	9.256
893.0	9.244
894.0	9.100
895.0	9.281
896.0	9.272
897.0	9.303
898.0	9.111
899.0	9.127
900.0	9.054
901.0	9.098
902.0	8.987
903.0	8.990
904.0	8.930
905.0	8.963
906.0	8.867
907.0	8.950
908.0	8.918
909.0	8.850
910.0	8.707
911.0	8.612
912.0	8.778
913.0	8.893
914.0	8.821
915.0	8.809
916.0	8.723
917.0	8.844
918.0	8.803
919.0	8.752
920.0	8.665
921.0	8.605
922.0	8.663
923.0	8.634
924.0	8.600
925.0	8.589
926.0	8.603
927.0	8.632
928.0	8.554
929.0	8.610
930.0	8.610
931.0	8.570
932.0	8.498
933.0	8.403
934.0	8.439
935.0	8.475
936.0	8.495
937.0	8.421
938.0	8.366
939.0	8.340
940.0	8.417
941.0	8.352
942.0	8.373
943.0	8.325
944.0	8.358
945.0	8.339
946.0	8.344
947.0	8.359
948.0	8.404
949.0	8.340
950.0	8.355
951.0	8.321
952.0	8.344
953.0	8.296
954.0	8.285
955.0	8.260
956.0	8.275
957.0	8.232
958.0	8.255
959.0	8.260
960.0	8.297
961.0	8.285
962.0	8.237
963.0	8.227
964.0	8.256
965.0	8.272
966.0	8.247
967.0	8.233
968.0	8.213
969.0	8.221
970.0	8.209
971.0	8.234
972.0	8.252
973.0	8.226
974.0	8.187
975.0	8.161
976.0	8.189
977.0	8.224
978.0	8.224
979.0	8.230
980.0	8.223
981.0	8.204
982.0	8.197
983.0	8.190
984.0	8.190
985.0	8.185
986.0	8.208
987.0	8.231
988.0	8.215
989.0	8.178
990.0	8.167
991.0	8.173
992.0	8.209
993.0	8.223
994.0	8.243
995.0	8.235
996.0	8.250
997.0	8.229
998.0	8.220
999.0	8.198
1000.0	8.205
1001.0	8.214
1002.0	8.222
1003.0	8.240
1004.0	8.249
1005.0	8.272
1006.0	8.254
1007.0	8.250
1008.0	8.253
1009.0	8.244
1010.0	8.250
1011.0	8.199
1012.0	8.234
1013.0	8.206
1014.0	8.241
1015.0	8.232
1016.0	8.242
1017.0	8.232
1018.0	8.235
1019.0	8.250
1020.0	8.268
1021.0	8.290
1022.0	8.328
1023.0	8.338
1024.0	8.354
1025.0	8.328
1026.0	8.339
1027.0	8.328
1028.0	8.354
1029.0	8.348
1030.0	8.387
1031.0	8.404
1032.0	8.418
1033.0	8.411
1034.0	8.426
1035.0	8.462
1036.0	8.457
1037.0	8.455
1038.0	8.452
1039.0	8.471
1040.0	8.486
1041.0	8.485
1042.0	8.476
1043.0	8.469
1044.0	8.487
1045.0	8.515
1046.0	8.539
1047.0	8.559
1048.0	8.565
1049.0	8.569
1050.0	8.577
1051.0	8.602
1052.0	8.612
1053.0	8.608
1054.0	8.598
1055.0	8.596
1056.0	8.617
1057.0	8.637
1058.0	8.676
1059.0	8.684
1060.0	8.687
1061.0	8.699
1062.0	8.703
1063.0	8.741
1064.0	8.746
1065.0	8.794
1066.0	8.785
1067.0	8.822
1068.0	8.835
1069.0	8.859
1070.0	8.825
1071.0	8.839
1072.0	8.858
1073.0	8.885
1074.0	8.882
1075.0	8.889
1076.0	8.927
1077.0	8.950
1078.0	8.957
1079.0	8.965
1080.0	8.991
1081.0	9.011
1082.0	8.998
1083.0	9.008
1084.0	9.022
1085.0	9.065
1086.0	9.082
1087.0	9.098
1088.0	9.116
1089.0	9.121
1090.0	9.158
1091.0	9.164
1092.0	9.171
1093.0	9.163
1094.0	9.195
1095.0	9.221
1096.0	9.271
1097.0	9.268
1098.0	9.286
1099.0	9.293
1100.0	9.323
1101.0	9.348
1102.0	9.348
1103.0	9.361
1104.0	9.361
1105.0	9.383
1106.0	9.404
1107.0	9.433
1108.0	9.458
1109.0	9.477
1110.0	9.499
1111.0	9.513
1112.0	9.535
1113.0	9.556
1114.0	9.589
1115.0	9.604
1116.0	9.633
1117.0	9.639
1118.0	9.660
1119.0	9.674
1120.0	9.690
1121.0	9.706
1122.0	9.730
1123.0	9.746
1124.0	9.780
1125.0	9.776
1126.0	9.801
1127.0	9.812
1128.0	9.862
1129.0	9.894
1130.0	9.914
1131.0	9.920
1132.0	9.923
1133.0	9.939
1134.0	9.950
1135.0	9.966
1136.0	9.974
1137.0	9.997
1138.0	10.030
1139.0	10.052
1140.0	10.081
1141.0	10.093
1142.0	10.114
1143.0	10.132
1144.0	10.134
1145.0	10.166
1146.0	10.181
1147.0	10.226
1148.0	10.240
1149.0	10.255
1150.0	10.281
1151.0	10.298
1152.0	10.328
1153.0	10.346
1154.0	10.375
1155.0	10.398
1156.0	10.409
1157.0	10.448
1158.0	10.461
1159.0	10.509
1160.0	10.510
1161.0	10.541
1162.0	10.525
1163.0	10.552
1164.0	10.548
1165.0	10.570
1166.0	10.586
1167.0	10.628
1168.0	10.686
1169.0	10.695
1170.0	10.710
1171.0	10.697
1172.0	10.723
1173.0	10.735
1174.0	10.755
1175.0	10.781
1176.0	10.802
1177.0	10.807
1178.0	10.814
1179.0	10.823
1180.0	10.864
1181.0	10.879
1182.0	10.922
1183.0	10.932
1184.0	10.958
1185.0	10.961
1186.0	10.987
1187.0	11.013
1188.0	11.027
1189.0	11.033
1190.0	11.055
1191.0	11.086
1192.0	11.122
1193.0	11.122
1194.0	11.153
1195.0	11.159
1196.0	11.192
1197.0	11.186
1198.0	11.216
1199.0	11.223
1200.0	11.251
1201.0	11.259
1202.0	11.269
1203.0	11.281
1204.0	11.298
1205.0	11.325
1206.0	11.332
1207.0	11.357
1208.0	11.374
1209.0	11.414
1210.0	11.426
1211.0	11.427
1212.0	11.448
1213.0	11.463
1214.0	11.500
1215.0	11.500
1216.0	11.517
1217.0	11.526
1218.0	11.544
1219.0	11.571
1220.0	11.591
1221.0	11.607
1222.0	11.620
1223.0	11.635
1224.0	11.653
1225.0	11.656
1226.0	11.671
1227.0	11.695
1228.0	11.711
1229.0	11.720
1230.0	11.715
1231.0	11.737
1232.0	11.765
1233.0	11.791
1234.0	11.804
1235.0	11.801
1236.0	11.815
1237.0	11.838
1238.0	11.874
1239.0	11.898
1240.0	11.903
1241.0	11.894
1242.0	11.883
1243.0	11.901
1244.0	11.936
1245.0	11.957
1246.0	11.963
1247.0	11.961
1248.0	11.996
1249.0	12.004
1250.0	12.020
1251.0	12.004
1252.0	12.020
1253.0	12.028
1254.0	12.056
1255.0	12.065
1256.0	12.075
1257.0	12.060
1258.0	12.071
1259.0	12.083
1260.0	12.108
1261.0	12.098
1262.0	12.125
1263.0	12.139
1264.0	12.165
1265.0	12.167
1266.0	12.172
1267.0	12.168
1268.0	12.169
1269.0	12.179
1270.0	12.206
1271.0	12.220
1272.0	12.222
1273.0	12.243
1274.0	12.248
1275.0	12.256
1276.0	12.260
1277.0	12.290
1278.0	12.306
1279.0	12.321
1280.0	12.311
1281.0	12.315
1282.0	12.319
1283.0	12.329
1284.0	12.339
1285.0	12.342
1286.0	12.345
1287.0	12.363
1288.0	12.372
1289.0	12.394
1290.0	12.403
1291.0	12.423
1292.0	12.417
1293.0	12.438
1294.0	12.437
1295.0	12.449
1296.0	12.442
1297.0	12.465
1298.0	12.482
1299.0	12.477
1300.0	12.486
1301.0	12.513
1302.0	12.565
1303.0	12.551
1304.0	12.559
1305.0	12.559
1306.0	12.591
1307.0	12.625
1308.0	12.593
1309.0	12.587
1310.0	12.568
1311.0	12.600
1312.0	12.628
1313.0	12.627
1314.0	12.632
1315.0	12.638
1316.0	12.659
1317.0	12.663
1318.0	12.669
1319.0	12.657
1320.0	12.689
1321.0	12.704
1322.0	12.730
1323.0	12.732
1324.0	12.721
1325.0	12.730
1326.0	12.743
1327.0	12.788
1328.0	12.773
1329.0	12.802
1330.0	12.773
1331.0	12.808
1332.0	12.794
1333.0	12.803
1334.0	12.819
1335.0	12.816
1336.0	12.841
1337.0	12.844
1338.0	12.887
1339.0	12.920
1340.0	12.937
1341.0	12.926
1342.0	12.912
1343.0	12.902
1344.0	12.871
1345.0	12.875
1346.0	12.864
1347.0	12.881
1348.0	12.879
1349.0	12.888
1350.0	12.914
1351.0	12.915
1352.0	12.933
1353.0	12.935
1354.0	12.938
1355.0	12.920
1356.0	12.904
1357.0	12.925
1358.0	12.942
1359.0	12.939
1360.0	12.913
1361.0	12.919
1362.0	12.948
1363.0	12.974
1364.0	12.996
1365.0	13.005
1366.0	13.003
1367.0	12.981
1368.0	13.004
1369.0	13.026
1370.0	13.060
1371.0	13.055
1372.0	13.055
1373.0	13.060
1374.0	13.070
1375.0	13.098
1376.0	13.116
1377.0	13.114
1378.0	13.111
1379.0	13.108
1380.0	13.132
1381.0	13.138
1382.0	13.137
1383.0	13.147
1384.0	13.135
1385.0	13.152
1386.0	13.154
1387.0	13.187
1388.0	13.190
1389.0	13.223
1390.0	13.224
1391.0	13.245
1392.0	13.226
1393.0	13.266
1394.0	13.269
1395.0	13.280
1396.0	13.259
1397.0	13.288
1398.0	13.320
1399.0	13.359
1400.0	13.357
1401.0	13.379
1402.0	13.392
1403.0	13.399
1404.0	13.400
1405.0	13.389
1406.0	13.433
1407.0	13.427
1408.0	13.453
1409.0	13.453
1410.0	13.512
1411.0	13.521
1412.0	13.533
1413.0	13.510
1414.0	13.536
1415.0	13.533
1416.0	13.514
1417.0	13.526
1418.0	13.544
1419.0	13.621
1420.0	13.615
1421.0	13.630
1422.0	13.606
1423.0	13.603
1424.0	13.582
1425.0	13.579
1426.0	13.582
1427.0	13.599
1428.0	13.606
1429.0	13.615
1430.0	13.614
1431.0	13.623
1432.0	13.643
1433.0	13.656
1434.0	13.635
1435.0	13.654
1436.0	13.652
1437.0	13.685
1438.0	13.651
1439.0	13.659
1440.0	13.625
1441.0	13.634
1442.0	13.632
1443.0	13.653
1444.0	13.624
1445.0	13.627
1446.0	13.618
1447.0	13.654
1448.0	13.634
1449.0	13.629
1450.0	13.623
1451.0	13.647
1452.0	13.671
1453.0	13.654
1454.0	13.645
1455.0	13.656
1456.0	13.704
1457.0	13.692
1458.0	13.674
1459.0	13.661
1460.0	13.682
1461.0	13.677
1462.0	13.670
1463.0	13.664
1464.0	13.649
1465.0	13.600
1466.0	13.557
1467.0	13.559
1468.0	13.578
1469.0	13.609
1470.0	13.585
1471.0	13.570
1472.0	13.545
1473.0	13.576
1474.0	13.582
1475.0	13.569
1476.0	13.537
1477.0	13.537
1478.0	13.571
1479.0	13.568
1480.0	13.554
1481.0	13.521
1482.0	13.501
1483.0	13.494
1484.0	13.494
1485.0	13.527
1486.0	13.520
1487.0	13.520
1488.0	13.456
1489.0	13.459
1490.0	13.441
1491.0	13.479
1492.0	13.436
1493.0	13.417
1494.0	13.430
1495.0	13.408
1496.0	13.396
1497.0	13.349
1498.0	13.402
1499.0	13.435
1500.0	13.440
1501.0	13.408
1502.0	13.389
1503.0	13.384
1504.0	13.375
1505.0	13.339
1506.0	13.323
1507.0	13.339
1508.0	13.362
1509.0	13.327
1510.0	13.334
1511.0	13.300
1512.0	13.333
1513.0	13.271
1514.0	13.257
1515.0	13.212
1516.0	13.253
1517.0	13.237
1518.0	13.262
1519.0	13.242
1520.0	13.240
1521.0	13.221
1522.0	13.145
1523.0	13.136
1524.0	13.117
1525.0	13.149
1526.0	13.139
1527.0	13.108
1528.0	13.120
1529.0	13.130
1530.0	13.147
1531.0	13.142
1532.0	13.181
1533.0	13.178
1534.0	13.143
1535.0	13.123
1536.0	13.140
1537.0	13.145
1538.0	13.129
1539.0	13.112
1540.0	13.117
1541.0	13.098
1542.0	13.137
1543.0	13.109
1544.0	13.085
1545.0	13.044
1546.0	13.079
1547.0	13.077
1548.0	13.061
1549.0	13.023
1550.0	13.039
1551.0	13.025
1552.0	13.023
1553.0	13.015
1554.0	13.012
1555.0	13.030
1556.0	12.999
1557.0	13.028
1558.0	13.056
1559.0	13.039
1560.0	13.028
1561.0	13.000
1562.0	13.047
1563.0	13.035
1564.0	13.020
1565.0	12.975
1566.0	12.957
1567.0	12.935
1568.0	12.975
1569.0	13.012
1570.0	13.050
1571.0	13.041
1572.0	12.960
1573.0	12.892
1574.0	12.882
1575.0	12.929
1576.0	12.902
1577.0	12.873
1578.0	12.847
1579.0	12.904
1580.0	12.915
1581.0	12.951
1582.0	12.896
1583.0	12.855
1584.0	12.828
1585.0	12.853
1586.0	12.888
1587.0	12.886
1588.0	12.899
1589.0	12.908
1590.0	12.864
1591.0	12.879
1592.0	12.869
1593.0	12.902
1594.0	12.880
1595.0	12.853
1596.0	12.844
1597.0	12.817
1598.0	12.847
1599.0	12.860
1600.0	12.916
1601.0	12.890
1602.0	12.884
1603.0	12.815
1604.0	12.756
1605.0	12.701
1606.0	12.702
1607.0	12.732
1608.0	12.773
1609.0	12.791
1610.0	12.766
1611.0	12.743
1612.0	12.745
1613.0	12.787
1614.0	12.763
1615.0	12.768
1616.0	12.760
1617.0	12.772
1618.0	12.739
1619.0	12.745
1620.0	12.745
1621.0	12.732
1622.0	12.730
1623.0	12.768
1624.0	12.770
1625.0	12.725
1626.0	12.664
1627.0	12.667
1628.0	12.696
1629.0	12.681
1630.0	12.645
1631.0	12.604
1632.0	12.657
1633.0	12.682
1634.0	12.747
1635.0	12.709
1636.0	12.702
1637.0	12.622
1638.0	12.600
1639.0	12.582
1640.0	12.581
1641.0	12.596
1642.0	12.613
1643.0	12.640
1644.0	12.650
1645.0	12.654
1646.0	12.697
1647.0	12.639
1648.0	12.674
1649.0	12.629
1650.0	12.105
1651.0	11.561
1652.0	11.068
1653.0	11.077
1654.0	10.691
1655.0	10.565
1656.0	10.681
1657.0	10.967
1658.0	10.613
1659.0	10.564
1660.0	10.545
1661.0	10.367
1662.0	10.082
1663.0	9.842
1664.0	10.733
1665.0	10.892
1666.0	11.155
1667.0	10.805
1668.0	10.596
1669.0	10.425
1670.0	10.746
1671.0	11.130
1672.0	11.449
1673.0	11.196
1674.0	11.232
1675.0	11.101
1676.0	11.431
1677.0	11.018
1678.0	11.053
1679.0	10.760
1680.0	11.209
1681.0	11.190
1682.0	11.389
1683.0	11.150
1684.0	11.317
1685.0	11.253
1686.0	10.950
1687.0	10.687
1688.0	10.557
1689.0	10.544
1690.0	10.849
1691.0	11.068
1692.0	11.595
1693.0	11.504
1694.0	11.240
1695.0	11.053
1696.0	11.034
1697.0	11.203
1698.0	10.991
1699.0	10.531
1700.0	10.706
1701.0	10.828
1702.0	11.284
1703.0	10.836
1704.0	10.656
1705.0	10.687
1706.0	10.834
1707.0	11.202
1708.0	11.207
1709.0	10.984
1710.0	10.549
1711.0	10.506
1712.0	10.977
1713.0	11.140
1714.0	11.153
1715.0	10.329
1716.0	10.562
1717.0	10.733
1718.0	11.150
1719.0	10.777
1720.0	10.126
1721.0	10.213
1722.0	10.340
1723.0	10.708
1724.0	10.433
1725.0	10.440
1726.0	10.149
1727.0	10.030
1728.0	10.013
1729.0	10.510
1730.0	10.771
1731.0	11.373
1732.0	11.289
1733.0	11.309
1734.0	11.068
1735.0	11.021
1736.0	11.393
1737.0	11.138
1738.0	10.962
1739.0	10.618
1740.0	10.327
1741.0	10.078
1742.0	9.943
1743.0	10.579
1744.0	11.096
1745.0	10.840
1746.0	10.685
1747.0	10.325
1748.0	10.717
1749.0	10.711
1750.0	10.971
1751.0	11.139
1752.0	11.036
1753.0	11.039
1754.0	11.738
1755.0	12.224
1756.0	12.658
1757.0	11.847
1758.0	11.187
1759.0	10.706
1760.0	10.868
1761.0	10.923
1762.0	11.200
1763.0	11.294
1764.0	11.303
1765.0	11.086
1766.0	10.616
1767.0	10.732
1768.0	10.788
1769.0	10.161
1770.0	9.792
1771.0	9.453
1772.0	10.652
1773.0	11.265
1774.0	11.636
1775.0	11.316
1776.0	11.032
1777.0	11.127
1778.0	11.319
1779.0	11.477
1780.0	11.772
1781.0	11.274
1782.0	11.106
1783.0	10.547
1784.0	10.785
1785.0	10.976
1786.0	11.858
1787.0	12.171
1788.0	12.021
1789.0	11.322
1790.0	11.163
1791.0	10.981
1792.0	10.741
1793.0	10.521
1794.0	11.009
1795.0	11.039
1796.0	11.120
1797.0	10.843
1798.0	10.627
1799.0	10.430
1800.0	10.502
1801.0	11.227
1802.0	11.365
1803.0	11.213
1804.0	10.889
1805.0	10.672
1806.0	10.889
1807.0	11.409
1808.0	11.523
1809.0	11.197
1810.0	10.722
1811.0	10.984
1812.0	11.203
1813.0	10.759
1814.0	10.930
1815.0	10.851
1816.0	10.349
1817.0	9.987
1818.0	10.248
1819.0	11.415
1820.0	12.184
1821.0	12.527
1822.0	12.930
1823.0	13.189
1824.0	12.492
1825.0	12.175
1826.0	10.435
1827.0	10.889
1828.0	10.744
1829.0	11.443
1830.0	11.535
1831.0	11.300
1832.0	11.278
1833.0	10.786
1834.0	10.591
1835.0	10.766
1836.0	10.188
1837.0	10.489
1838.0	10.049
1839.0	10.870
1840.0	11.413
1841.0	11.387
1842.0	11.352
1843.0	10.504
1844.0	11.477
1845.0	11.926
1846.0	12.851
1847.0	13.239
1848.0	13.093
1849.0	12.537
1850.0	11.504
1851.0	12.094
1852.0	11.587
1853.0	12.439
1854.0	11.361
1855.0	12.098
1856.0	10.982
1857.0	10.791
1858.0	10.131
1859.0	11.107
1860.0	11.782
1861.0	12.125
1862.0	10.525
1863.0	9.750
1864.0	9.920
1865.0	11.264
1866.0	11.839
1867.0	11.674
1868.0	11.731
1869.0	12.090
1870.0	11.704
1871.0	11.509
1872.0	12.064
1873.0	12.380
1874.0	13.082
1875.0	12.255
1876.0	12.646
1877.0	12.222
1878.0	12.029
1879.0	11.353
1880.0	11.481
1881.0	11.157
1882.0	11.539
1883.0	11.154
1884.0	12.225
1885.0	11.509
1886.0	11.555
1887.0	10.886
1888.0	11.639
1889.0	12.422
1890.0	12.754
1891.0	13.072
1892.0	12.242
1893.0	12.475
1894.0	12.858
1895.0	13.031
1896.0	12.446
1897.0	11.454
1898.0	11.664
1899.0	12.139
1900.0	12.264
1901.0	12.071
1902.0	11.244
1903.0	10.776
1904.0	10.560
1905.0	11.888
1906.0	12.311
1907.0	12.673
1908.0	12.578
1909.0	13.229
1910.0	11.702
1911.0	11.243
1912.0	11.073
1913.0	12.165
1914.0	12.071
1915.0	11.654
1916.0	11.728
1917.0	11.676
1918.0	12.151
1919.0	11.968
1920.0	12.632
1921.0	12.496
1922.0	13.009
1923.0	11.440
1924.0	11.829
1925.0	11.485
1926.0	12.472
1927.0	11.475
1928.0	11.783
1929.0	11.786
1930.0	12.164
1931.0	11.260
1932.0	11.493
1933.0	11.930
1934.0	12.964
1935.0	12.412
1936.0	13.198
1937.0	12.517
1938.0	12.145
1939.0	11.388
1940.0	12.075
1941.0	12.315
1942.0	11.991
1943.0	12.545
1944.0	13.118
1945.0	12.920
1946.0	12.401
1947.0	11.569
1948.0	11.478
1949.0	12.104
1950.0	12.242
1951.0	12.654
1952.0	12.590
1953.0	13.751
1954.0	13.615
1955.0	12.510
1956.0	12.336
1957.0	13.383
1958.0	14.249
1959.0	13.695
1960.0	13.739
1961.0	13.655
1962.0	14.998
1963.0	14.720
1964.0	13.802
1965.0	11.907
1966.0	11.502
1967.0	12.610
1968.0	12.839
1969.0	12.447
1970.0	11.418
1971.0	11.454
1972.0	11.175
1973.0	12.953
1974.0	13.195
1975.0	13.842
1976.0	12.932
1977.0	13.281
1978.0	13.379
1979.0	14.175
1980.0	14.367
1981.0	13.420
1982.0	12.036
1983.0	11.194
1984.0	11.684
1985.0	12.505
1986.0	12.930
1987.0	13.159
1988.0	12.804
1989.0	12.744
1990.0	12.959
1991.0	11.784
1992.0	12.088
1993.0	10.679
1994.0	11.579
1995.0	11.390
1996.0	11.635
1997.0	11.929
1998.0	12.527
1999.0	13.218
2000.0	12.776
