[SUMMARY]
Software Information
Software Name:	UVProbe
Version:	2.43
Mode:	Normal Mode

Data Information
Data is:	Original
Analyst:	
Date/Time:	23/02/2023 18:45:10
Comments:	

Instrument Information
Instrument Name:	SolidSpec3700
Instrument Type:	SolidSpec-3700 Series
Model (S/N):	SolidSpec3700 ( A11085100264CZ )

[METHOD]
[Measurement Properties]
Wavelength Range (nm.):	285,00 to 1600,00
Scan Speed:	Medium
Sampling Interval:	1,0
Auto Sampling Interval:	Disabled
Scan Mode:	Single

[Sample Preparation Properties]
Weight:	
Volume:	
Dilution:	
Path Length:	
Additional Information:	

[Instrument Properties]
Instrument Type:	SolidSpec-3700 Series
Measuring Mode:	Reflectance
Slit Width:	5,0 nm
Time Constant:	1,0 sec.
Source Lamp:	Auto
Light Source Change Wavelength:	282,00 nm
Detector Unit:	Integral Sphere
Detector Change Wavelength:	900,00 nm  1650,00 nm
Grating Change Wavelength:	800,00 nm
S/R Exchange:	Inverse
Detector Lock:	Auto
Slit Program:	Fixed
Beam Mode:	Double
Stair Correction:	Disable

[Attachment Properties]
Attachment:	X-Y Stage
Sequence File:	Positions.xys

[Operation]
Threshold:	0,0010000
Points:	4
InterPolate:	Disabled
Average:	Disabled

[DATA]
Wavelength	Data
285.0	6.910
286.0	6.909
287.0	6.916
288.0	6.926
289.0	6.932
290.0	6.925
291.0	6.889
292.0	6.925
293.0	6.927
294.0	6.955
295.0	6.944
296.0	6.960
297.0	6.997
298.0	6.973
299.0	6.977
300.0	6.976
301.0	6.994
302.0	6.978
303.0	6.936
304.0	6.887
305.0	6.836
306.0	6.832
307.0	6.826
308.0	6.875
309.0	6.868
310.0	6.866
311.0	6.844
312.0	6.827
313.0	6.843
314.0	6.819
315.0	6.792
316.0	6.738
317.0	6.720
318.0	6.727
319.0	6.758
320.0	6.761
321.0	6.742
322.0	6.686
323.0	6.669
324.0	6.680
325.0	6.700
326.0	6.668
327.0	6.631
328.0	6.624
329.0	6.640
330.0	6.654
331.0	6.665
332.0	6.682
333.0	6.656
334.0	6.629
335.0	6.585
336.0	6.567
337.0	6.519
338.0	6.515
339.0	6.481
340.0	6.470
341.0	6.471
342.0	6.483
343.0	6.477
344.0	6.429
345.0	6.420
346.0	6.422
347.0	6.428
348.0	6.400
349.0	6.371
350.0	6.373
351.0	6.366
352.0	6.369
353.0	6.327
354.0	6.309
355.0	6.288
356.0	6.278
357.0	6.271
358.0	6.249
359.0	6.230
360.0	6.190
361.0	6.178
362.0	6.168
363.0	6.175
364.0	6.152
365.0	6.123
366.0	6.101
367.0	6.091
368.0	6.084
369.0	6.071
370.0	6.044
371.0	6.043
372.0	6.018
373.0	6.029
374.0	6.000
375.0	5.984
376.0	5.955
377.0	5.933
378.0	5.930
379.0	5.903
380.0	5.900
381.0	5.888
382.0	5.895
383.0	5.879
384.0	5.878
385.0	5.877
386.0	5.872
387.0	5.862
388.0	5.839
389.0	5.827
390.0	5.804
391.0	5.800
392.0	5.790
393.0	5.792
394.0	5.794
395.0	5.797
396.0	5.783
397.0	5.773
398.0	5.761
399.0	5.766
400.0	5.768
401.0	5.759
402.0	5.754
403.0	5.741
404.0	5.736
405.0	5.718
406.0	5.705
407.0	5.706
408.0	5.704
409.0	5.709
410.0	5.701
411.0	5.696
412.0	5.677
413.0	5.670
414.0	5.664
415.0	5.656
416.0	5.643
417.0	5.628
418.0	5.624
419.0	5.624
420.0	5.629
421.0	5.640
422.0	5.639
423.0	5.625
424.0	5.618
425.0	5.623
426.0	5.628
427.0	5.612
428.0	5.601
429.0	5.603
430.0	5.610
431.0	5.611
432.0	5.603
433.0	5.615
434.0	5.610
435.0	5.615
436.0	5.604
437.0	5.611
438.0	5.611
439.0	5.612
440.0	5.612
441.0	5.617
442.0	5.631
443.0	5.645
444.0	5.651
445.0	5.647
446.0	5.651
447.0	5.654
448.0	5.659
449.0	5.672
450.0	5.683
451.0	5.696
452.0	5.698
453.0	5.707
454.0	5.719
455.0	5.729
456.0	5.751
457.0	5.767
458.0	5.788
459.0	5.800
460.0	5.821
461.0	5.833
462.0	5.841
463.0	5.855
464.0	5.871
465.0	5.894
466.0	5.913
467.0	5.932
468.0	5.954
469.0	5.969
470.0	5.990
471.0	6.004
472.0	6.034
473.0	6.059
474.0	6.094
475.0	6.126
476.0	6.163
477.0	6.199
478.0	6.219
479.0	6.244
480.0	6.265
481.0	6.296
482.0	6.324
483.0	6.353
484.0	6.386
485.0	6.421
486.0	6.465
487.0	6.504
488.0	6.537
489.0	6.569
490.0	6.595
491.0	6.633
492.0	6.662
493.0	6.705
494.0	6.738
495.0	6.780
496.0	6.810
497.0	6.852
498.0	6.894
499.0	6.947
500.0	6.989
501.0	7.022
502.0	7.058
503.0	7.100
504.0	7.151
505.0	7.206
506.0	7.248
507.0	7.286
508.0	7.335
509.0	7.377
510.0	7.424
511.0	7.457
512.0	7.507
513.0	7.556
514.0	7.600
515.0	7.646
516.0	7.691
517.0	7.745
518.0	7.788
519.0	7.826
520.0	7.881
521.0	7.936
522.0	7.995
523.0	8.029
524.0	8.076
525.0	8.122
526.0	8.177
527.0	8.222
528.0	8.278
529.0	8.330
530.0	8.393
531.0	8.448
532.0	8.493
533.0	8.539
534.0	8.581
535.0	8.649
536.0	8.697
537.0	8.749
538.0	8.793
539.0	8.837
540.0	8.888
541.0	8.932
542.0	8.988
543.0	9.041
544.0	9.090
545.0	9.142
546.0	9.185
547.0	9.233
548.0	9.280
549.0	9.340
550.0	9.390
551.0	9.443
552.0	9.486
553.0	9.543
554.0	9.601
555.0	9.659
556.0	9.717
557.0	9.763
558.0	9.811
559.0	9.850
560.0	9.891
561.0	9.941
562.0	9.987
563.0	10.049
564.0	10.079
565.0	10.126
566.0	10.149
567.0	10.201
568.0	10.239
569.0	10.289
570.0	10.324
571.0	10.357
572.0	10.397
573.0	10.441
574.0	10.485
575.0	10.524
576.0	10.571
577.0	10.622
578.0	10.670
579.0	10.713
580.0	10.750
581.0	10.785
582.0	10.825
583.0	10.860
584.0	10.906
585.0	10.936
586.0	10.974
587.0	11.010
588.0	11.053
589.0	11.105
590.0	11.138
591.0	11.175
592.0	11.207
593.0	11.247
594.0	11.269
595.0	11.296
596.0	11.328
597.0	11.371
598.0	11.417
599.0	11.442
600.0	11.472
601.0	11.490
602.0	11.528
603.0	11.568
604.0	11.594
605.0	11.631
606.0	11.644
607.0	11.680
608.0	11.689
609.0	11.712
610.0	11.735
611.0	11.762
612.0	11.796
613.0	11.825
614.0	11.847
615.0	11.875
616.0	11.881
617.0	11.910
618.0	11.925
619.0	11.951
620.0	11.967
621.0	11.993
622.0	12.016
623.0	12.035
624.0	12.049
625.0	12.064
626.0	12.084
627.0	12.110
628.0	12.144
629.0	12.164
630.0	12.175
631.0	12.171
632.0	12.182
633.0	12.204
634.0	12.226
635.0	12.236
636.0	12.245
637.0	12.258
638.0	12.280
639.0	12.285
640.0	12.306
641.0	12.304
642.0	12.303
643.0	12.292
644.0	12.310
645.0	12.338
646.0	12.360
647.0	12.355
648.0	12.353
649.0	12.344
650.0	12.337
651.0	12.331
652.0	12.343
653.0	12.339
654.0	12.331
655.0	12.303
656.0	12.308
657.0	12.294
658.0	12.288
659.0	12.277
660.0	12.269
661.0	12.249
662.0	12.231
663.0	12.222
664.0	12.219
665.0	12.210
666.0	12.206
667.0	12.200
668.0	12.189
669.0	12.190
670.0	12.193
671.0	12.194
672.0	12.170
673.0	12.164
674.0	12.155
675.0	12.133
676.0	12.119
677.0	12.103
678.0	12.107
679.0	12.081
680.0	12.056
681.0	12.048
682.0	12.051
683.0	12.038
684.0	12.024
685.0	12.006
686.0	11.999
687.0	11.987
688.0	11.974
689.0	11.962
690.0	11.943
691.0	11.928
692.0	11.931
693.0	11.887
694.0	11.855
695.0	11.820
696.0	11.840
697.0	11.858
698.0	11.871
699.0	11.863
700.0	11.853
701.0	11.820
702.0	11.792
703.0	11.757
704.0	11.741
705.0	11.758
706.0	11.793
707.0	11.809
708.0	11.795
709.0	11.759
710.0	11.773
711.0	11.772
712.0	11.762
713.0	11.736
714.0	11.733
715.0	11.734
716.0	11.735
717.0	11.759
718.0	11.771
719.0	11.775
720.0	11.794
721.0	11.797
722.0	11.793
723.0	11.765
724.0	11.768
725.0	11.774
726.0	11.786
727.0	11.797
728.0	11.817
729.0	11.803
730.0	11.800
731.0	11.772
732.0	11.799
733.0	11.781
734.0	11.819
735.0	11.799
736.0	11.811
737.0	11.798
738.0	11.796
739.0	11.798
740.0	11.818
741.0	11.839
742.0	11.857
743.0	11.863
744.0	11.870
745.0	11.902
746.0	11.901
747.0	11.888
748.0	11.875
749.0	11.860
750.0	11.871
751.0	11.866
752.0	11.902
753.0	11.936
754.0	11.924
755.0	11.919
756.0	11.922
757.0	11.980
758.0	11.988
759.0	11.984
760.0	11.970
761.0	12.008
762.0	12.057
763.0	12.098
764.0	12.089
765.0	12.103
766.0	12.108
767.0	12.074
768.0	12.027
769.0	12.021
770.0	12.056
771.0	12.094
772.0	12.080
773.0	12.101
774.0	12.102
775.0	12.127
776.0	12.151
777.0	12.180
778.0	12.191
779.0	12.174
780.0	12.150
781.0	12.143
782.0	12.152
783.0	12.159
784.0	12.162
785.0	12.151
786.0	12.132
787.0	12.164
788.0	12.169
789.0	12.190
790.0	12.164
791.0	12.211
792.0	12.231
793.0	12.262
794.0	12.261
795.0	12.271
796.0	12.276
797.0	12.265
798.0	12.248
799.0	12.279
800.0	12.335
801.0	12.390
802.0	12.403
803.0	12.412
804.0	12.442
805.0	12.458
806.0	12.461
807.0	12.434
808.0	12.440
809.0	12.440
810.0	12.476
811.0	12.475
812.0	12.488
813.0	12.491
814.0	12.525
815.0	12.534
816.0	12.546
817.0	12.540
818.0	12.557
819.0	12.564
820.0	12.566
821.0	12.568
822.0	12.555
823.0	12.559
824.0	12.554
825.0	12.568
826.0	12.586
827.0	12.609
828.0	12.632
829.0	12.614
830.0	12.590
831.0	12.587
832.0	12.601
833.0	12.614
834.0	12.611
835.0	12.630
836.0	12.651
837.0	12.642
838.0	12.623
839.0	12.626
840.0	12.619
841.0	12.615
842.0	12.617
843.0	12.665
844.0	12.678
845.0	12.631
846.0	12.601
847.0	12.578
848.0	12.617
849.0	12.622
850.0	12.623
851.0	12.580
852.0	12.596
853.0	12.612
854.0	12.615
855.0	12.626
856.0	12.597
857.0	12.629
858.0	12.553
859.0	12.559
860.0	12.549
861.0	12.555
862.0	12.626
863.0	12.646
864.0	12.646
865.0	12.620
866.0	12.587
867.0	12.601
868.0	12.644
869.0	12.735
870.0	12.797
871.0	12.808
872.0	12.724
873.0	12.768
874.0	12.758
875.0	12.927
876.0	12.880
877.0	12.773
878.0	12.611
879.0	12.702
880.0	12.743
881.0	12.708
882.0	12.653
883.0	12.719
884.0	12.649
885.0	12.519
886.0	12.438
887.0	12.487
888.0	12.640
889.0	12.733
890.0	12.866
891.0	12.947
892.0	13.052
893.0	12.840
894.0	12.604
895.0	12.315
896.0	12.386
897.0	12.253
898.0	12.327
899.0	12.583
900.0	12.952
901.0	13.146
902.0	13.099
903.0	13.272
904.0	13.298
905.0	13.362
906.0	13.211
907.0	13.197
908.0	13.132
909.0	13.244
910.0	13.292
911.0	13.361
912.0	13.244
913.0	13.233
914.0	13.263
915.0	13.263
916.0	13.309
917.0	13.286
918.0	13.282
919.0	13.225
920.0	13.220
921.0	13.275
922.0	13.356
923.0	13.312
924.0	13.284
925.0	13.253
926.0	13.318
927.0	13.261
928.0	13.269
929.0	13.220
930.0	13.299
931.0	13.222
932.0	13.272
933.0	13.190
934.0	13.248
935.0	13.225
936.0	13.263
937.0	13.248
938.0	13.219
939.0	13.242
940.0	13.233
941.0	13.181
942.0	13.167
943.0	13.077
944.0	13.150
945.0	13.162
946.0	13.228
947.0	13.212
948.0	13.170
949.0	13.199
950.0	13.238
951.0	13.297
952.0	13.292
953.0	13.225
954.0	13.171
955.0	13.153
956.0	13.210
957.0	13.210
958.0	13.216
959.0	13.179
960.0	13.193
961.0	13.214
962.0	13.217
963.0	13.203
964.0	13.164
965.0	13.181
966.0	13.213
967.0	13.234
968.0	13.206
969.0	13.186
970.0	13.215
971.0	13.235
972.0	13.218
973.0	13.128
974.0	13.119
975.0	13.118
976.0	13.152
977.0	13.173
978.0	13.129
979.0	13.114
980.0	13.069
981.0	13.092
982.0	13.072
983.0	13.089
984.0	13.068
985.0	13.070
986.0	13.042
987.0	13.044
988.0	13.034
989.0	13.016
990.0	13.006
991.0	12.986
992.0	12.984
993.0	12.971
994.0	12.961
995.0	12.944
996.0	12.922
997.0	12.942
998.0	12.956
999.0	12.965
1000.0	12.915
1001.0	12.878
1002.0	12.843
1003.0	12.867
1004.0	12.879
1005.0	12.902
1006.0	12.885
1007.0	12.859
1008.0	12.827
1009.0	12.817
1010.0	12.808
1011.0	12.800
1012.0	12.789
1013.0	12.779
1014.0	12.792
1015.0	12.769
1016.0	12.766
1017.0	12.712
1018.0	12.699
1019.0	12.700
1020.0	12.719
1021.0	12.705
1022.0	12.681
1023.0	12.645
1024.0	12.639
1025.0	12.609
1026.0	12.602
1027.0	12.573
1028.0	12.548
1029.0	12.548
1030.0	12.544
1031.0	12.540
1032.0	12.533
1033.0	12.508
1034.0	12.476
1035.0	12.442
1036.0	12.418
1037.0	12.435
1038.0	12.434
1039.0	12.444
1040.0	12.416
1041.0	12.381
1042.0	12.359
1043.0	12.341
1044.0	12.324
1045.0	12.319
1046.0	12.289
1047.0	12.292
1048.0	12.273
1049.0	12.255
1050.0	12.208
1051.0	12.193
1052.0	12.207
1053.0	12.210
1054.0	12.189
1055.0	12.166
1056.0	12.150
1057.0	12.119
1058.0	12.108
1059.0	12.083
1060.0	12.095
1061.0	12.072
1062.0	12.092
1063.0	12.071
1064.0	12.040
1065.0	11.993
1066.0	11.959
1067.0	11.960
1068.0	11.950
1069.0	11.943
1070.0	11.921
1071.0	11.908
1072.0	11.873
1073.0	11.848
1074.0	11.813
1075.0	11.806
1076.0	11.801
1077.0	11.799
1078.0	11.774
1079.0	11.744
1080.0	11.708
1081.0	11.706
1082.0	11.701
1083.0	11.687
1084.0	11.645
1085.0	11.619
1086.0	11.599
1087.0	11.588
1088.0	11.533
1089.0	11.515
1090.0	11.500
1091.0	11.507
1092.0	11.464
1093.0	11.433
1094.0	11.394
1095.0	11.404
1096.0	11.378
1097.0	11.387
1098.0	11.379
1099.0	11.367
1100.0	11.337
1101.0	11.304
1102.0	11.299
1103.0	11.273
1104.0	11.255
1105.0	11.237
1106.0	11.245
1107.0	11.208
1108.0	11.177
1109.0	11.140
1110.0	11.144
1111.0	11.129
1112.0	11.117
1113.0	11.105
1114.0	11.083
1115.0	11.069
1116.0	11.039
1117.0	11.020
1118.0	11.003
1119.0	10.972
1120.0	10.965
1121.0	10.941
1122.0	10.924
1123.0	10.900
1124.0	10.874
1125.0	10.873
1126.0	10.864
1127.0	10.848
1128.0	10.817
1129.0	10.780
1130.0	10.764
1131.0	10.766
1132.0	10.744
1133.0	10.714
1134.0	10.686
1135.0	10.690
1136.0	10.687
1137.0	10.661
1138.0	10.647
1139.0	10.633
1140.0	10.638
1141.0	10.619
1142.0	10.597
1143.0	10.566
1144.0	10.559
1145.0	10.548
1146.0	10.541
1147.0	10.520
1148.0	10.512
1149.0	10.495
1150.0	10.486
1151.0	10.465
1152.0	10.457
1153.0	10.438
1154.0	10.410
1155.0	10.398
1156.0	10.383
1157.0	10.382
1158.0	10.348
1159.0	10.309
1160.0	10.300
1161.0	10.292
1162.0	10.283
1163.0	10.254
1164.0	10.246
1165.0	10.230
1166.0	10.205
1167.0	10.197
1168.0	10.188
1169.0	10.180
1170.0	10.146
1171.0	10.131
1172.0	10.128
1173.0	10.134
1174.0	10.109
1175.0	10.091
1176.0	10.043
1177.0	10.044
1178.0	10.009
1179.0	10.017
1180.0	10.001
1181.0	10.014
1182.0	9.988
1183.0	9.970
1184.0	9.948
1185.0	9.939
1186.0	9.936
1187.0	9.904
1188.0	9.874
1189.0	9.848
1190.0	9.841
1191.0	9.830
1192.0	9.816
1193.0	9.787
1194.0	9.762
1195.0	9.747
1196.0	9.746
1197.0	9.739
1198.0	9.719
1199.0	9.699
1200.0	9.694
1201.0	9.688
1202.0	9.690
1203.0	9.691
1204.0	9.669
1205.0	9.652
1206.0	9.626
1207.0	9.626
1208.0	9.607
1209.0	9.571
1210.0	9.555
1211.0	9.536
1212.0	9.535
1213.0	9.515
1214.0	9.515
1215.0	9.509
1216.0	9.502
1217.0	9.486
1218.0	9.461
1219.0	9.449
1220.0	9.435
1221.0	9.429
1222.0	9.406
1223.0	9.396
1224.0	9.398
1225.0	9.410
1226.0	9.394
1227.0	9.386
1228.0	9.356
1229.0	9.362
1230.0	9.346
1231.0	9.349
1232.0	9.325
1233.0	9.311
1234.0	9.287
1235.0	9.273
1236.0	9.258
1237.0	9.246
1238.0	9.245
1239.0	9.219
1240.0	9.210
1241.0	9.201
1242.0	9.206
1243.0	9.193
1244.0	9.169
1245.0	9.165
1246.0	9.165
1247.0	9.138
1248.0	9.131
1249.0	9.116
1250.0	9.141
1251.0	9.109
1252.0	9.102
1253.0	9.074
1254.0	9.067
1255.0	9.059
1256.0	9.047
1257.0	9.052
1258.0	9.046
1259.0	9.051
1260.0	9.048
1261.0	9.035
1262.0	9.037
1263.0	9.034
1264.0	9.015
1265.0	8.983
1266.0	8.977
1267.0	8.979
1268.0	8.988
1269.0	8.968
1270.0	8.959
1271.0	8.931
1272.0	8.937
1273.0	8.947
1274.0	8.968
1275.0	8.960
1276.0	8.928
1277.0	8.928
1278.0	8.932
1279.0	8.950
1280.0	8.928
1281.0	8.904
1282.0	8.893
1283.0	8.890
1284.0	8.879
1285.0	8.883
1286.0	8.882
1287.0	8.884
1288.0	8.869
1289.0	8.866
1290.0	8.869
1291.0	8.867
1292.0	8.876
1293.0	8.873
1294.0	8.882
1295.0	8.860
1296.0	8.848
1297.0	8.818
1298.0	8.811
1299.0	8.810
1300.0	8.827
1301.0	8.832
1302.0	8.820
1303.0	8.806
1304.0	8.806
1305.0	8.808
1306.0	8.818
1307.0	8.820
1308.0	8.849
1309.0	8.824
1310.0	8.822
1311.0	8.809
1312.0	8.832
1313.0	8.844
1314.0	8.844
1315.0	8.834
1316.0	8.824
1317.0	8.821
1318.0	8.829
1319.0	8.828
1320.0	8.818
1321.0	8.808
1322.0	8.820
1323.0	8.831
1324.0	8.842
1325.0	8.843
1326.0	8.835
1327.0	8.835
1328.0	8.827
1329.0	8.839
1330.0	8.815
1331.0	8.812
1332.0	8.797
1333.0	8.820
1334.0	8.846
1335.0	8.858
1336.0	8.867
1337.0	8.850
1338.0	8.843
1339.0	8.869
1340.0	8.866
1341.0	8.878
1342.0	8.847
1343.0	8.846
1344.0	8.836
1345.0	8.832
1346.0	8.825
1347.0	8.837
1348.0	8.843
1349.0	8.879
1350.0	8.878
1351.0	8.869
1352.0	8.830
1353.0	8.836
1354.0	8.848
1355.0	8.839
1356.0	8.825
1357.0	8.838
1358.0	8.861
1359.0	8.878
1360.0	8.847
1361.0	8.855
1362.0	8.833
1363.0	8.867
1364.0	8.880
1365.0	8.890
1366.0	8.876
1367.0	8.885
1368.0	8.903
1369.0	8.919
1370.0	8.894
1371.0	8.895
1372.0	8.893
1373.0	8.901
1374.0	8.940
1375.0	8.939
1376.0	8.965
1377.0	8.936
1378.0	8.941
1379.0	8.936
1380.0	8.966
1381.0	8.972
1382.0	8.967
1383.0	8.944
1384.0	8.964
1385.0	9.018
1386.0	9.029
1387.0	9.038
1388.0	9.012
1389.0	9.025
1390.0	9.008
1391.0	8.991
1392.0	8.993
1393.0	9.030
1394.0	9.072
1395.0	9.074
1396.0	9.085
1397.0	9.105
1398.0	9.143
1399.0	9.155
1400.0	9.170
1401.0	9.186
1402.0	9.187
1403.0	9.188
1404.0	9.194
1405.0	9.210
1406.0	9.229
1407.0	9.237
1408.0	9.244
1409.0	9.257
1410.0	9.283
1411.0	9.310
1412.0	9.344
1413.0	9.330
1414.0	9.327
1415.0	9.289
1416.0	9.309
1417.0	9.334
1418.0	9.363
1419.0	9.366
1420.0	9.349
1421.0	9.367
1422.0	9.393
1423.0	9.423
1424.0	9.419
1425.0	9.421
1426.0	9.410
1427.0	9.390
1428.0	9.419
1429.0	9.466
1430.0	9.502
1431.0	9.493
1432.0	9.484
1433.0	9.496
1434.0	9.481
1435.0	9.466
1436.0	9.482
1437.0	9.480
1438.0	9.509
1439.0	9.486
1440.0	9.527
1441.0	9.528
1442.0	9.564
1443.0	9.524
1444.0	9.557
1445.0	9.543
1446.0	9.606
1447.0	9.580
1448.0	9.562
1449.0	9.556
1450.0	9.555
1451.0	9.588
1452.0	9.565
1453.0	9.592
1454.0	9.600
1455.0	9.601
1456.0	9.592
1457.0	9.576
1458.0	9.578
1459.0	9.590
1460.0	9.608
1461.0	9.645
1462.0	9.626
1463.0	9.610
1464.0	9.595
1465.0	9.631
1466.0	9.675
1467.0	9.670
1468.0	9.645
1469.0	9.633
1470.0	9.663
1471.0	9.646
1472.0	9.644
1473.0	9.637
1474.0	9.680
1475.0	9.693
1476.0	9.683
1477.0	9.671
1478.0	9.696
1479.0	9.707
1480.0	9.717
1481.0	9.670
1482.0	9.658
1483.0	9.638
1484.0	9.664
1485.0	9.663
1486.0	9.678
1487.0	9.668
1488.0	9.692
1489.0	9.693
1490.0	9.683
1491.0	9.678
1492.0	9.668
1493.0	9.684
1494.0	9.672
1495.0	9.672
1496.0	9.671
1497.0	9.649
1498.0	9.706
1499.0	9.718
1500.0	9.767
1501.0	9.739
1502.0	9.754
1503.0	9.756
1504.0	9.742
1505.0	9.706
1506.0	9.701
1507.0	9.685
1508.0	9.693
1509.0	9.654
1510.0	9.689
1511.0	9.708
1512.0	9.742
1513.0	9.719
1514.0	9.691
1515.0	9.712
1516.0	9.767
1517.0	9.786
1518.0	9.764
1519.0	9.734
1520.0	9.732
1521.0	9.757
1522.0	9.722
1523.0	9.747
1524.0	9.727
1525.0	9.762
1526.0	9.771
1527.0	9.799
1528.0	9.819
1529.0	9.814
1530.0	9.827
1531.0	9.803
1532.0	9.783
1533.0	9.771
1534.0	9.768
1535.0	9.777
1536.0	9.764
1537.0	9.800
1538.0	9.836
1539.0	9.836
1540.0	9.844
1541.0	9.833
1542.0	9.835
1543.0	9.797
1544.0	9.816
1545.0	9.825
1546.0	9.868
1547.0	9.847
1548.0	9.852
1549.0	9.870
1550.0	9.903
1551.0	9.891
1552.0	9.889
1553.0	9.841
1554.0	9.855
1555.0	9.836
1556.0	9.865
1557.0	9.897
1558.0	9.942
1559.0	9.957
1560.0	9.952
1561.0	9.957
1562.0	9.935
1563.0	9.930
1564.0	9.917
1565.0	9.944
1566.0	9.993
1567.0	9.970
1568.0	9.983
1569.0	9.947
1570.0	9.958
1571.0	9.987
1572.0	10.008
1573.0	10.008
1574.0	9.965
1575.0	9.984
1576.0	10.015
1577.0	10.051
1578.0	10.058
1579.0	10.057
1580.0	10.055
1581.0	10.073
1582.0	10.071
1583.0	10.034
1584.0	10.017
1585.0	10.027
1586.0	10.071
1587.0	10.044
1588.0	10.003
1589.0	9.979
1590.0	9.987
1591.0	9.979
1592.0	9.963
1593.0	9.981
1594.0	10.029
1595.0	10.080
1596.0	10.068
1597.0	10.065
1598.0	10.034
1599.0	10.078
1600.0	10.116
