[SUMMARY]
Software Information
Software Name:	UVProbe
Version:	2.43
Mode:	Normal Mode

Data Information
Data is:	Original
Analyst:	
Date/Time:	06/03/2023 13:51:25
Comments:	

Instrument Information
Instrument Name:	SolidSpec3700
Instrument Type:	SolidSpec-3700 Series
Model (S/N):	SolidSpec3700 ( A11085100264CZ )

[METHOD]
[Measurement Properties]
Wavelength Range (nm.):	285,00 to 2000,00
Scan Speed:	Medium
Sampling Interval:	1,0
Auto Sampling Interval:	Disabled
Scan Mode:	Single

[Sample Preparation Properties]
Weight:	
Volume:	
Dilution:	
Path Length:	
Additional Information:	

[Instrument Properties]
Instrument Type:	SolidSpec-3700 Series
Measuring Mode:	Reflectance
Slit Width:	5,0 nm
Time Constant:	1,0 sec.
Source Lamp:	Auto
Light Source Change Wavelength:	282,00 nm
Detector Unit:	Integral Sphere
Detector Change Wavelength:	870,00 nm  1650,00 nm
Grating Change Wavelength:	800,00 nm
S/R Exchange:	Inverse
Detector Lock:	Auto
Slit Program:	Fixed
Beam Mode:	Double
Stair Correction:	Disable

[Attachment Properties]
Attachment:	None

[Operation]
Threshold:	0,0010000
Points:	4
InterPolate:	Disabled
Average:	Disabled

[DATA]
Wavelength	Data
285.0	4.813
286.0	4.839
287.0	4.929
288.0	5.003
289.0	5.064
290.0	5.059
291.0	5.041
292.0	5.048
293.0	5.076
294.0	5.117
295.0	5.097
296.0	5.084
297.0	5.062
298.0	5.069
299.0	5.082
300.0	5.114
301.0	5.122
302.0	5.125
303.0	5.102
304.0	5.074
305.0	5.046
306.0	5.043
307.0	5.055
308.0	5.025
309.0	5.027
310.0	5.022
311.0	5.025
312.0	4.991
313.0	4.949
314.0	4.898
315.0	4.839
316.0	4.803
317.0	4.783
318.0	4.751
319.0	4.707
320.0	4.629
321.0	4.600
322.0	4.553
323.0	4.527
324.0	4.480
325.0	4.474
326.0	4.437
327.0	4.378
328.0	4.291
329.0	4.229
330.0	4.183
331.0	4.139
332.0	4.095
333.0	4.029
334.0	3.980
335.0	3.931
336.0	3.887
337.0	3.828
338.0	3.773
339.0	3.718
340.0	3.666
341.0	3.627
342.0	3.572
343.0	3.533
344.0	3.469
345.0	3.425
346.0	3.365
347.0	3.331
348.0	3.310
349.0	3.285
350.0	3.241
351.0	3.202
352.0	3.174
353.0	3.155
354.0	3.127
355.0	3.107
356.0	3.085
357.0	3.047
358.0	3.022
359.0	2.999
360.0	3.000
361.0	3.007
362.0	3.022
363.0	3.043
364.0	3.053
365.0	3.063
366.0	3.088
367.0	3.101
368.0	3.136
369.0	3.159
370.0	3.199
371.0	3.226
372.0	3.269
373.0	3.304
374.0	3.352
375.0	3.379
376.0	3.423
377.0	3.464
378.0	3.501
379.0	3.554
380.0	3.597
381.0	3.654
382.0	3.690
383.0	3.724
384.0	3.759
385.0	3.795
386.0	3.836
387.0	3.866
388.0	3.905
389.0	3.929
390.0	3.960
391.0	3.983
392.0	4.020
393.0	4.046
394.0	4.073
395.0	4.095
396.0	4.116
397.0	4.135
398.0	4.147
399.0	4.179
400.0	4.201
401.0	4.220
402.0	4.232
403.0	4.249
404.0	4.261
405.0	4.273
406.0	4.293
407.0	4.318
408.0	4.333
409.0	4.349
410.0	4.360
411.0	4.381
412.0	4.387
413.0	4.400
414.0	4.413
415.0	4.423
416.0	4.444
417.0	4.445
418.0	4.454
419.0	4.450
420.0	4.458
421.0	4.464
422.0	4.473
423.0	4.468
424.0	4.469
425.0	4.463
426.0	4.463
427.0	4.459
428.0	4.455
429.0	4.462
430.0	4.452
431.0	4.457
432.0	4.451
433.0	4.437
434.0	4.428
435.0	4.421
436.0	4.430
437.0	4.424
438.0	4.416
439.0	4.415
440.0	4.411
441.0	4.415
442.0	4.419
443.0	4.420
444.0	4.425
445.0	4.426
446.0	4.439
447.0	4.443
448.0	4.440
449.0	4.444
450.0	4.451
451.0	4.466
452.0	4.483
453.0	4.502
454.0	4.515
455.0	4.525
456.0	4.536
457.0	4.553
458.0	4.560
459.0	4.573
460.0	4.577
461.0	4.597
462.0	4.609
463.0	4.630
464.0	4.637
465.0	4.650
466.0	4.664
467.0	4.685
468.0	4.698
469.0	4.709
470.0	4.726
471.0	4.745
472.0	4.762
473.0	4.776
474.0	4.787
475.0	4.815
476.0	4.834
477.0	4.853
478.0	4.860
479.0	4.870
480.0	4.889
481.0	4.902
482.0	4.921
483.0	4.930
484.0	4.936
485.0	4.949
486.0	4.956
487.0	4.964
488.0	4.963
489.0	4.978
490.0	5.001
491.0	5.021
492.0	5.022
493.0	5.021
494.0	5.018
495.0	5.026
496.0	5.032
497.0	5.048
498.0	5.061
499.0	5.069
500.0	5.074
501.0	5.076
502.0	5.078
503.0	5.081
504.0	5.085
505.0	5.089
506.0	5.090
507.0	5.090
508.0	5.082
509.0	5.072
510.0	5.059
511.0	5.069
512.0	5.080
513.0	5.091
514.0	5.087
515.0	5.071
516.0	5.070
517.0	5.067
518.0	5.080
519.0	5.064
520.0	5.052
521.0	5.031
522.0	5.026
523.0	5.025
524.0	5.016
525.0	5.013
526.0	5.004
527.0	4.995
528.0	4.986
529.0	4.973
530.0	4.968
531.0	4.949
532.0	4.931
533.0	4.913
534.0	4.911
535.0	4.904
536.0	4.902
537.0	4.883
538.0	4.866
539.0	4.840
540.0	4.830
541.0	4.825
542.0	4.816
543.0	4.803
544.0	4.781
545.0	4.766
546.0	4.745
547.0	4.731
548.0	4.709
549.0	4.690
550.0	4.663
551.0	4.651
552.0	4.627
553.0	4.621
554.0	4.600
555.0	4.589
556.0	4.560
557.0	4.535
558.0	4.503
559.0	4.482
560.0	4.466
561.0	4.439
562.0	4.414
563.0	4.392
564.0	4.380
565.0	4.353
566.0	4.327
567.0	4.295
568.0	4.277
569.0	4.247
570.0	4.228
571.0	4.194
572.0	4.166
573.0	4.132
574.0	4.108
575.0	4.080
576.0	4.049
577.0	4.018
578.0	3.985
579.0	3.954
580.0	3.919
581.0	3.884
582.0	3.856
583.0	3.828
584.0	3.799
585.0	3.778
586.0	3.754
587.0	3.730
588.0	3.696
589.0	3.660
590.0	3.626
591.0	3.588
592.0	3.561
593.0	3.529
594.0	3.498
595.0	3.469
596.0	3.439
597.0	3.414
598.0	3.375
599.0	3.350
600.0	3.318
601.0	3.293
602.0	3.265
603.0	3.237
604.0	3.212
605.0	3.183
606.0	3.154
607.0	3.122
608.0	3.092
609.0	3.067
610.0	3.045
611.0	3.022
612.0	2.997
613.0	2.972
614.0	2.947
615.0	2.927
616.0	2.903
617.0	2.883
618.0	2.863
619.0	2.853
620.0	2.833
621.0	2.813
622.0	2.787
623.0	2.764
624.0	2.744
625.0	2.729
626.0	2.722
627.0	2.709
628.0	2.697
629.0	2.674
630.0	2.658
631.0	2.645
632.0	2.640
633.0	2.629
634.0	2.614
635.0	2.600
636.0	2.585
637.0	2.575
638.0	2.571
639.0	2.575
640.0	2.563
641.0	2.558
642.0	2.552
643.0	2.552
644.0	2.541
645.0	2.533
646.0	2.533
647.0	2.537
648.0	2.541
649.0	2.546
650.0	2.546
651.0	2.545
652.0	2.549
653.0	2.557
654.0	2.565
655.0	2.574
656.0	2.577
657.0	2.576
658.0	2.574
659.0	2.575
660.0	2.581
661.0	2.585
662.0	2.595
663.0	2.609
664.0	2.622
665.0	2.628
666.0	2.630
667.0	2.637
668.0	2.653
669.0	2.676
670.0	2.694
671.0	2.701
672.0	2.710
673.0	2.726
674.0	2.750
675.0	2.769
676.0	2.777
677.0	2.784
678.0	2.794
679.0	2.810
680.0	2.831
681.0	2.840
682.0	2.852
683.0	2.862
684.0	2.885
685.0	2.900
686.0	2.915
687.0	2.932
688.0	2.951
689.0	2.972
690.0	2.981
691.0	3.000
692.0	3.016
693.0	3.022
694.0	3.027
695.0	3.043
696.0	3.065
697.0	3.083
698.0	3.093
699.0	3.113
700.0	3.136
701.0	3.166
702.0	3.189
703.0	3.199
704.0	3.200
705.0	3.216
706.0	3.239
707.0	3.248
708.0	3.271
709.0	3.273
710.0	3.290
711.0	3.302
712.0	3.336
713.0	3.347
714.0	3.358
715.0	3.369
716.0	3.411
717.0	3.435
718.0	3.457
719.0	3.466
720.0	3.472
721.0	3.486
722.0	3.505
723.0	3.539
724.0	3.564
725.0	3.575
726.0	3.597
727.0	3.614
728.0	3.640
729.0	3.650
730.0	3.670
731.0	3.693
732.0	3.705
733.0	3.736
734.0	3.758
735.0	3.793
736.0	3.801
737.0	3.829
738.0	3.865
739.0	3.911
740.0	3.945
741.0	3.966
742.0	3.989
743.0	4.004
744.0	4.029
745.0	4.059
746.0	4.080
747.0	4.108
748.0	4.115
749.0	4.142
750.0	4.160
751.0	4.188
752.0	4.205
753.0	4.241
754.0	4.297
755.0	4.334
756.0	4.387
757.0	4.396
758.0	4.447
759.0	4.438
760.0	4.472
761.0	4.498
762.0	4.538
763.0	4.547
764.0	4.570
765.0	4.607
766.0	4.646
767.0	4.665
768.0	4.680
769.0	4.707
770.0	4.732
771.0	4.777
772.0	4.814
773.0	4.843
774.0	4.849
775.0	4.852
776.0	4.875
777.0	4.895
778.0	4.924
779.0	4.957
780.0	4.993
781.0	5.011
782.0	5.018
783.0	5.035
784.0	5.070
785.0	5.123
786.0	5.146
787.0	5.194
788.0	5.208
789.0	5.233
790.0	5.240
791.0	5.280
792.0	5.286
793.0	5.319
794.0	5.328
795.0	5.381
796.0	5.407
797.0	5.424
798.0	5.443
799.0	5.486
800.0	5.530
801.0	5.572
802.0	5.580
803.0	5.607
804.0	5.641
805.0	5.679
806.0	5.711
807.0	5.739
808.0	5.761
809.0	5.779
810.0	5.813
811.0	5.839
812.0	5.876
813.0	5.895
814.0	5.930
815.0	5.948
816.0	5.971
817.0	6.013
818.0	6.072
819.0	6.109
820.0	6.136
821.0	6.141
822.0	6.162
823.0	6.193
824.0	6.224
825.0	6.253
826.0	6.276
827.0	6.313
828.0	6.353
829.0	6.385
830.0	6.436
831.0	6.488
832.0	6.528
833.0	6.543
834.0	6.568
835.0	6.598
836.0	6.626
837.0	6.657
838.0	6.692
839.0	6.719
840.0	6.742
841.0	6.785
842.0	6.801
843.0	6.832
844.0	6.844
845.0	6.915
846.0	6.919
847.0	6.960
848.0	6.980
849.0	7.019
850.0	7.051
851.0	7.051
852.0	7.101
853.0	7.119
854.0	7.173
855.0	7.192
856.0	7.225
857.0	7.248
858.0	7.272
859.0	7.293
860.0	7.308
861.0	7.320
862.0	7.360
863.0	7.365
864.0	7.459
865.0	7.414
866.0	7.512
867.0	7.451
868.0	7.592
869.0	7.581
870.0	7.611
871.0	7.507
872.0	7.499
873.0	7.611
874.0	7.814
875.0	7.855
876.0	7.806
877.0	7.907
878.0	8.023
879.0	8.189
880.0	7.846
881.0	7.844
882.0	7.914
883.0	8.389
884.0	8.347
885.0	8.071
886.0	7.780
887.0	7.921
888.0	8.200
889.0	8.093
890.0	8.038
891.0	7.840
892.0	7.980
893.0	8.031
894.0	8.025
895.0	8.109
896.0	8.121
897.0	8.280
898.0	8.301
899.0	8.295
900.0	8.320
901.0	8.265
902.0	8.203
903.0	8.166
904.0	8.145
905.0	8.174
906.0	8.184
907.0	8.316
908.0	8.321
909.0	8.315
910.0	8.225
911.0	8.246
912.0	8.353
913.0	8.470
914.0	8.601
915.0	8.565
916.0	8.583
917.0	8.496
918.0	8.492
919.0	8.504
920.0	8.589
921.0	8.670
922.0	8.636
923.0	8.506
924.0	8.434
925.0	8.456
926.0	8.567
927.0	8.552
928.0	8.531
929.0	8.492
930.0	8.585
931.0	8.539
932.0	8.562
933.0	8.530
934.0	8.588
935.0	8.608
936.0	8.628
937.0	8.687
938.0	8.635
939.0	8.704
940.0	8.699
941.0	8.696
942.0	8.658
943.0	8.673
944.0	8.756
945.0	8.774
946.0	8.754
947.0	8.708
948.0	8.693
949.0	8.729
950.0	8.787
951.0	8.770
952.0	8.786
953.0	8.799
954.0	8.830
955.0	8.809
956.0	8.816
957.0	8.821
958.0	8.820
959.0	8.813
960.0	8.868
961.0	8.919
962.0	8.961
963.0	8.933
964.0	8.933
965.0	8.941
966.0	8.930
967.0	8.954
968.0	8.937
969.0	8.953
970.0	8.960
971.0	8.992
972.0	9.001
973.0	9.006
974.0	9.029
975.0	9.043
976.0	9.048
977.0	9.070
978.0	9.081
979.0	9.096
980.0	9.080
981.0	9.097
982.0	9.096
983.0	9.092
984.0	9.125
985.0	9.137
986.0	9.183
987.0	9.170
988.0	9.172
989.0	9.183
990.0	9.211
991.0	9.241
992.0	9.256
993.0	9.241
994.0	9.255
995.0	9.258
996.0	9.297
997.0	9.311
998.0	9.307
999.0	9.333
1000.0	9.338
1001.0	9.375
1002.0	9.364
1003.0	9.385
1004.0	9.372
1005.0	9.390
1006.0	9.399
1007.0	9.426
1008.0	9.419
1009.0	9.424
1010.0	9.438
1011.0	9.468
1012.0	9.506
1013.0	9.501
1014.0	9.498
1015.0	9.473
1016.0	9.513
1017.0	9.532
1018.0	9.548
1019.0	9.550
1020.0	9.557
1021.0	9.568
1022.0	9.553
1023.0	9.568
1024.0	9.621
1025.0	9.640
1026.0	9.649
1027.0	9.618
1028.0	9.624
1029.0	9.643
1030.0	9.669
1031.0	9.697
1032.0	9.712
1033.0	9.710
1034.0	9.702
1035.0	9.723
1036.0	9.760
1037.0	9.795
1038.0	9.795
1039.0	9.789
1040.0	9.793
1041.0	9.815
1042.0	9.842
1043.0	9.858
1044.0	9.854
1045.0	9.864
1046.0	9.897
1047.0	9.929
1048.0	9.955
1049.0	9.945
1050.0	9.939
1051.0	9.943
1052.0	9.966
1053.0	10.004
1054.0	10.005
1055.0	10.030
1056.0	10.045
1057.0	10.069
1058.0	10.060
1059.0	10.058
1060.0	10.066
1061.0	10.085
1062.0	10.104
1063.0	10.115
1064.0	10.143
1065.0	10.157
1066.0	10.173
1067.0	10.161
1068.0	10.172
1069.0	10.193
1070.0	10.212
1071.0	10.228
1072.0	10.255
1073.0	10.267
1074.0	10.281
1075.0	10.289
1076.0	10.322
1077.0	10.352
1078.0	10.373
1079.0	10.403
1080.0	10.401
1081.0	10.415
1082.0	10.399
1083.0	10.423
1084.0	10.445
1085.0	10.482
1086.0	10.498
1087.0	10.509
1088.0	10.528
1089.0	10.539
1090.0	10.565
1091.0	10.578
1092.0	10.586
1093.0	10.581
1094.0	10.605
1095.0	10.629
1096.0	10.646
1097.0	10.649
1098.0	10.685
1099.0	10.706
1100.0	10.724
1101.0	10.702
1102.0	10.728
1103.0	10.737
1104.0	10.771
1105.0	10.785
1106.0	10.800
1107.0	10.817
1108.0	10.836
1109.0	10.870
1110.0	10.903
1111.0	10.919
1112.0	10.958
1113.0	10.979
1114.0	10.994
1115.0	10.986
1116.0	11.004
1117.0	11.037
1118.0	11.061
1119.0	11.093
1120.0	11.115
1121.0	11.160
1122.0	11.188
1123.0	11.187
1124.0	11.187
1125.0	11.198
1126.0	11.250
1127.0	11.284
1128.0	11.319
1129.0	11.343
1130.0	11.381
1131.0	11.385
1132.0	11.409
1133.0	11.429
1134.0	11.466
1135.0	11.486
1136.0	11.503
1137.0	11.533
1138.0	11.561
1139.0	11.578
1140.0	11.609
1141.0	11.634
1142.0	11.674
1143.0	11.699
1144.0	11.731
1145.0	11.748
1146.0	11.766
1147.0	11.797
1148.0	11.839
1149.0	11.875
1150.0	11.912
1151.0	11.932
1152.0	11.959
1153.0	11.978
1154.0	12.030
1155.0	12.058
1156.0	12.107
1157.0	12.168
1158.0	12.217
1159.0	12.228
1160.0	12.234
1161.0	12.263
1162.0	12.306
1163.0	12.327
1164.0	12.372
1165.0	12.402
1166.0	12.461
1167.0	12.479
1168.0	12.512
1169.0	12.543
1170.0	12.594
1171.0	12.646
1172.0	12.672
1173.0	12.704
1174.0	12.745
1175.0	12.784
1176.0	12.816
1177.0	12.835
1178.0	12.877
1179.0	12.906
1180.0	12.955
1181.0	12.999
1182.0	13.055
1183.0	13.089
1184.0	13.117
1185.0	13.163
1186.0	13.215
1187.0	13.266
1188.0	13.294
1189.0	13.358
1190.0	13.407
1191.0	13.476
1192.0	13.489
1193.0	13.522
1194.0	13.556
1195.0	13.624
1196.0	13.675
1197.0	13.720
1198.0	13.753
1199.0	13.801
1200.0	13.834
1201.0	13.866
1202.0	13.902
1203.0	13.958
1204.0	13.996
1205.0	14.042
1206.0	14.082
1207.0	14.156
1208.0	14.201
1209.0	14.232
1210.0	14.270
1211.0	14.308
1212.0	14.378
1213.0	14.413
1214.0	14.483
1215.0	14.522
1216.0	14.573
1217.0	14.600
1218.0	14.655
1219.0	14.711
1220.0	14.757
1221.0	14.793
1222.0	14.837
1223.0	14.891
1224.0	14.925
1225.0	14.964
1226.0	15.003
1227.0	15.070
1228.0	15.139
1229.0	15.192
1230.0	15.241
1231.0	15.276
1232.0	15.345
1233.0	15.393
1234.0	15.443
1235.0	15.484
1236.0	15.533
1237.0	15.582
1238.0	15.622
1239.0	15.666
1240.0	15.714
1241.0	15.781
1242.0	15.833
1243.0	15.894
1244.0	15.937
1245.0	15.990
1246.0	16.045
1247.0	16.086
1248.0	16.120
1249.0	16.164
1250.0	16.239
1251.0	16.311
1252.0	16.367
1253.0	16.413
1254.0	16.457
1255.0	16.503
1256.0	16.538
1257.0	16.597
1258.0	16.652
1259.0	16.718
1260.0	16.779
1261.0	16.819
1262.0	16.873
1263.0	16.901
1264.0	16.943
1265.0	16.977
1266.0	17.044
1267.0	17.101
1268.0	17.161
1269.0	17.190
1270.0	17.246
1271.0	17.297
1272.0	17.355
1273.0	17.412
1274.0	17.449
1275.0	17.495
1276.0	17.537
1277.0	17.582
1278.0	17.633
1279.0	17.662
1280.0	17.702
1281.0	17.707
1282.0	17.750
1283.0	17.799
1284.0	17.860
1285.0	17.924
1286.0	17.962
1287.0	18.018
1288.0	18.069
1289.0	18.105
1290.0	18.159
1291.0	18.207
1292.0	18.275
1293.0	18.309
1294.0	18.332
1295.0	18.387
1296.0	18.448
1297.0	18.507
1298.0	18.546
1299.0	18.600
1300.0	18.656
1301.0	18.714
1302.0	18.764
1303.0	18.830
1304.0	18.894
1305.0	18.966
1306.0	18.990
1307.0	19.045
1308.0	19.073
1309.0	19.147
1310.0	19.177
1311.0	19.241
1312.0	19.318
1313.0	19.382
1314.0	19.429
1315.0	19.461
1316.0	19.509
1317.0	19.561
1318.0	19.597
1319.0	19.646
1320.0	19.688
1321.0	19.750
1322.0	19.808
1323.0	19.861
1324.0	19.913
1325.0	19.956
1326.0	20.021
1327.0	20.070
1328.0	20.108
1329.0	20.140
1330.0	20.198
1331.0	20.256
1332.0	20.325
1333.0	20.367
1334.0	20.435
1335.0	20.486
1336.0	20.505
1337.0	20.544
1338.0	20.588
1339.0	20.670
1340.0	20.695
1341.0	20.726
1342.0	20.761
1343.0	20.799
1344.0	20.872
1345.0	20.921
1346.0	21.003
1347.0	21.036
1348.0	21.087
1349.0	21.116
1350.0	21.147
1351.0	21.184
1352.0	21.212
1353.0	21.267
1354.0	21.318
1355.0	21.375
1356.0	21.445
1357.0	21.473
1358.0	21.526
1359.0	21.544
1360.0	21.600
1361.0	21.637
1362.0	21.679
1363.0	21.722
1364.0	21.789
1365.0	21.834
1366.0	21.897
1367.0	21.934
1368.0	21.993
1369.0	22.024
1370.0	22.092
1371.0	22.161
1372.0	22.210
1373.0	22.251
1374.0	22.278
1375.0	22.335
1376.0	22.400
1377.0	22.488
1378.0	22.556
1379.0	22.584
1380.0	22.604
1381.0	22.654
1382.0	22.725
1383.0	22.774
1384.0	22.814
1385.0	22.904
1386.0	22.974
1387.0	23.063
1388.0	23.079
1389.0	23.146
1390.0	23.192
1391.0	23.257
1392.0	23.317
1393.0	23.363
1394.0	23.420
1395.0	23.486
1396.0	23.558
1397.0	23.622
1398.0	23.683
1399.0	23.748
1400.0	23.814
1401.0	23.856
1402.0	23.935
1403.0	23.990
1404.0	24.079
1405.0	24.128
1406.0	24.204
1407.0	24.257
1408.0	24.324
1409.0	24.372
1410.0	24.414
1411.0	24.478
1412.0	24.531
1413.0	24.600
1414.0	24.627
1415.0	24.666
1416.0	24.703
1417.0	24.773
1418.0	24.811
1419.0	24.877
1420.0	24.900
1421.0	24.996
1422.0	25.023
1423.0	25.116
1424.0	25.136
1425.0	25.172
1426.0	25.195
1427.0	25.242
1428.0	25.331
1429.0	25.353
1430.0	25.417
1431.0	25.425
1432.0	25.483
1433.0	25.527
1434.0	25.589
1435.0	25.622
1436.0	25.698
1437.0	25.771
1438.0	25.819
1439.0	25.794
1440.0	25.810
1441.0	25.836
1442.0	25.879
1443.0	25.897
1444.0	25.933
1445.0	26.005
1446.0	26.038
1447.0	26.074
1448.0	26.075
1449.0	26.143
1450.0	26.176
1451.0	26.223
1452.0	26.251
1453.0	26.312
1454.0	26.342
1455.0	26.367
1456.0	26.384
1457.0	26.375
1458.0	26.397
1459.0	26.430
1460.0	26.478
1461.0	26.528
1462.0	26.535
1463.0	26.575
1464.0	26.571
1465.0	26.590
1466.0	26.611
1467.0	26.625
1468.0	26.666
1469.0	26.687
1470.0	26.759
1471.0	26.790
1472.0	26.826
1473.0	26.805
1474.0	26.822
1475.0	26.859
1476.0	26.883
1477.0	26.915
1478.0	26.899
1479.0	26.932
1480.0	26.953
1481.0	26.971
1482.0	26.967
1483.0	26.969
1484.0	26.998
1485.0	27.013
1486.0	27.020
1487.0	27.076
1488.0	27.139
1489.0	27.134
1490.0	27.149
1491.0	27.156
1492.0	27.230
1493.0	27.260
1494.0	27.279
1495.0	27.308
1496.0	27.327
1497.0	27.328
1498.0	27.316
1499.0	27.337
1500.0	27.339
1501.0	27.376
1502.0	27.337
1503.0	27.391
1504.0	27.424
1505.0	27.463
1506.0	27.476
1507.0	27.474
1508.0	27.516
1509.0	27.557
1510.0	27.597
1511.0	27.606
1512.0	27.603
1513.0	27.583
1514.0	27.589
1515.0	27.607
1516.0	27.633
1517.0	27.618
1518.0	27.613
1519.0	27.639
1520.0	27.679
1521.0	27.688
1522.0	27.704
1523.0	27.735
1524.0	27.803
1525.0	27.786
1526.0	27.808
1527.0	27.798
1528.0	27.863
1529.0	27.894
1530.0	27.926
1531.0	27.940
1532.0	27.949
1533.0	27.944
1534.0	27.936
1535.0	28.013
1536.0	28.034
1537.0	28.092
1538.0	28.030
1539.0	28.083
1540.0	28.073
1541.0	28.122
1542.0	28.144
1543.0	28.162
1544.0	28.158
1545.0	28.177
1546.0	28.252
1547.0	28.275
1548.0	28.287
1549.0	28.284
1550.0	28.306
1551.0	28.290
1552.0	28.278
1553.0	28.281
1554.0	28.352
1555.0	28.384
1556.0	28.438
1557.0	28.436
1558.0	28.426
1559.0	28.457
1560.0	28.476
1561.0	28.507
1562.0	28.529
1563.0	28.542
1564.0	28.584
1565.0	28.600
1566.0	28.653
1567.0	28.666
1568.0	28.683
1569.0	28.693
1570.0	28.717
1571.0	28.725
1572.0	28.783
1573.0	28.813
1574.0	28.865
1575.0	28.848
1576.0	28.896
1577.0	28.911
1578.0	28.897
1579.0	28.890
1580.0	28.906
1581.0	28.915
1582.0	28.913
1583.0	28.940
1584.0	28.957
1585.0	29.051
1586.0	29.062
1587.0	29.101
1588.0	29.072
1589.0	29.039
1590.0	29.080
1591.0	29.081
1592.0	29.153
1593.0	29.188
1594.0	29.227
1595.0	29.243
1596.0	29.280
1597.0	29.273
1598.0	29.306
1599.0	29.314
1600.0	29.397
1601.0	29.367
1602.0	29.325
1603.0	29.318
1604.0	29.356
1605.0	29.401
1606.0	29.410
1607.0	29.407
1608.0	29.472
1609.0	29.513
1610.0	29.570
1611.0	29.595
1612.0	29.621
1613.0	29.583
1614.0	29.583
1615.0	29.619
1616.0	29.645
1617.0	29.648
1618.0	29.614
1619.0	29.676
1620.0	29.668
1621.0	29.640
1622.0	29.655
1623.0	29.654
1624.0	29.690
1625.0	29.705
1626.0	29.689
1627.0	29.739
1628.0	29.735
1629.0	29.815
1630.0	29.843
1631.0	29.844
1632.0	29.921
1633.0	29.906
1634.0	30.004
1635.0	29.971
1636.0	29.990
1637.0	29.980
1638.0	29.994
1639.0	30.026
1640.0	30.027
1641.0	30.088
1642.0	30.113
1643.0	30.125
1644.0	30.098
1645.0	30.117
1646.0	30.101
1647.0	30.172
1648.0	30.195
1649.0	30.337
1650.0	28.679
1651.0	27.118
1652.0	25.364
1653.0	25.489
1654.0	25.331
1655.0	25.668
1656.0	25.550
1657.0	25.709
1658.0	25.669
1659.0	25.568
1660.0	25.409
1661.0	25.530
1662.0	25.545
1663.0	25.557
1664.0	25.246
1665.0	25.362
1666.0	25.514
1667.0	25.920
1668.0	25.914
1669.0	25.852
1670.0	25.706
1671.0	25.600
1672.0	25.897
1673.0	25.833
1674.0	25.865
1675.0	25.586
1676.0	25.741
1677.0	26.137
1678.0	26.182
1679.0	25.893
1680.0	25.826
1681.0	26.249
1682.0	26.680
1683.0	26.653
1684.0	26.471
1685.0	25.776
1686.0	25.860
1687.0	25.613
1688.0	25.730
1689.0	25.373
1690.0	25.529
1691.0	25.784
1692.0	25.857
1693.0	25.800
1694.0	25.697
1695.0	26.053
1696.0	25.992
1697.0	26.036
1698.0	25.768
1699.0	25.825
1700.0	25.993
1701.0	26.404
1702.0	26.523
1703.0	26.623
1704.0	26.678
1705.0	26.772
1706.0	26.739
1707.0	26.363
1708.0	26.608
1709.0	26.557
1710.0	26.246
1711.0	26.398
1712.0	26.291
1713.0	26.516
1714.0	26.119
1715.0	25.838
1716.0	26.404
1717.0	26.366
1718.0	27.130
1719.0	27.221
1720.0	27.358
1721.0	26.740
1722.0	26.188
1723.0	26.157
1724.0	27.301
1725.0	27.484
1726.0	27.400
1727.0	26.770
1728.0	26.865
1729.0	26.569
1730.0	26.315
1731.0	25.368
1732.0	25.683
1733.0	25.574
1734.0	26.319
1735.0	26.403
1736.0	26.486
1737.0	26.828
1738.0	26.319
1739.0	26.546
1740.0	25.520
1741.0	25.856
1742.0	25.602
1743.0	26.829
1744.0	27.098
1745.0	26.924
1746.0	26.762
1747.0	26.804
1748.0	27.710
1749.0	27.513
1750.0	27.518
1751.0	26.577
1752.0	26.452
1753.0	26.839
1754.0	27.946
1755.0	27.917
1756.0	27.209
1757.0	26.941
1758.0	27.056
1759.0	27.018
1760.0	26.597
1761.0	26.942
1762.0	26.917
1763.0	26.966
1764.0	27.445
1765.0	27.818
1766.0	27.424
1767.0	26.603
1768.0	26.624
1769.0	26.653
1770.0	27.128
1771.0	27.049
1772.0	27.200
1773.0	26.965
1774.0	27.020
1775.0	27.449
1776.0	27.521
1777.0	27.391
1778.0	27.185
1779.0	27.505
1780.0	28.094
1781.0	27.737
1782.0	27.697
1783.0	27.429
1784.0	27.278
1785.0	26.979
1786.0	26.194
1787.0	26.735
1788.0	27.267
1789.0	27.867
1790.0	27.194
1791.0	26.998
1792.0	27.139
1793.0	27.551
1794.0	27.591
1795.0	27.446
1796.0	27.940
1797.0	28.155
1798.0	28.085
1799.0	27.245
1800.0	27.284
1801.0	27.825
1802.0	28.490
1803.0	27.412
1804.0	27.542
1805.0	27.806
1806.0	28.390
1807.0	28.396
1808.0	28.333
1809.0	28.263
1810.0	27.552
1811.0	27.583
1812.0	28.007
1813.0	28.470
1814.0	28.886
1815.0	28.510
1816.0	28.712
1817.0	27.712
1818.0	27.339
1819.0	27.652
1820.0	28.633
1821.0	28.879
1822.0	28.170
1823.0	27.247
1824.0	27.126
1825.0	26.286
1826.0	26.745
1827.0	26.408
1828.0	26.931
1829.0	27.010
1830.0	27.524
1831.0	28.065
1832.0	27.628
1833.0	27.908
1834.0	27.608
1835.0	28.228
1836.0	28.403
1837.0	29.181
1838.0	28.925
1839.0	28.073
1840.0	27.946
1841.0	27.264
1842.0	27.168
1843.0	26.094
1844.0	27.034
1845.0	27.990
1846.0	28.954
1847.0	27.998
1848.0	27.536
1849.0	27.027
1850.0	27.383
1851.0	27.736
1852.0	28.071
1853.0	28.069
1854.0	27.929
1855.0	29.283
1856.0	29.546
1857.0	29.647
1858.0	28.256
1859.0	28.838
1860.0	28.902
1861.0	28.588
1862.0	28.046
1863.0	27.763
1864.0	27.624
1865.0	28.539
1866.0	28.267
1867.0	29.386
1868.0	29.711
1869.0	30.088
1870.0	28.690
1871.0	27.662
1872.0	27.262
1873.0	28.273
1874.0	29.121
1875.0	29.733
1876.0	29.802
1877.0	29.562
1878.0	28.778
1879.0	28.645
1880.0	28.512
1881.0	29.264
1882.0	28.963
1883.0	28.964
1884.0	30.021
1885.0	30.877
1886.0	30.443
1887.0	29.668
1888.0	29.766
1889.0	30.620
1890.0	31.147
1891.0	31.852
1892.0	31.914
1893.0	30.979
1894.0	30.228
1895.0	30.746
1896.0	32.089
1897.0	31.891
1898.0	30.547
1899.0	30.683
1900.0	30.405
1901.0	30.208
1902.0	29.683
1903.0	31.097
1904.0	31.507
1905.0	31.056
1906.0	31.095
1907.0	31.413
1908.0	32.113
1909.0	30.759
1910.0	30.105
1911.0	29.277
1912.0	29.830
1913.0	31.430
1914.0	31.614
1915.0	30.766
1916.0	30.756
1917.0	31.430
1918.0	31.640
1919.0	31.529
1920.0	33.104
1921.0	34.659
1922.0	34.643
1923.0	30.966
1924.0	29.831
1925.0	31.782
1926.0	33.656
1927.0	32.996
1928.0	32.181
1929.0	33.317
1930.0	35.194
1931.0	34.245
1932.0	33.702
1933.0	32.951
1934.0	32.324
1935.0	31.984
1936.0	32.199
1937.0	32.849
1938.0	33.323
1939.0	31.945
1940.0	32.769
1941.0	32.623
1942.0	34.534
1943.0	34.418
1944.0	35.601
1945.0	35.002
1946.0	34.273
1947.0	32.414
1948.0	33.020
1949.0	32.750
1950.0	35.468
1951.0	36.389
1952.0	38.056
1953.0	34.299
1954.0	32.453
1955.0	31.293
1956.0	32.859
1957.0	34.216
1958.0	34.082
1959.0	34.261
1960.0	33.146
1961.0	33.118
1962.0	32.882
1963.0	33.149
1964.0	33.326
1965.0	33.848
1966.0	32.590
1967.0	30.736
1968.0	30.322
1969.0	30.623
1970.0	31.024
1971.0	30.977
1972.0	31.269
1973.0	32.145
1974.0	32.114
1975.0	32.374
1976.0	31.319
1977.0	30.956
1978.0	30.417
1979.0	31.522
1980.0	31.740
1981.0	32.721
1982.0	33.370
1983.0	33.166
1984.0	31.444
1985.0	28.941
1986.0	28.850
1987.0	30.623
1988.0	31.525
1989.0	30.652
1990.0	30.347
1991.0	29.793
1992.0	31.471
1993.0	32.255
1994.0	33.214
1995.0	32.494
1996.0	31.697
1997.0	32.249
1998.0	31.881
1999.0	31.478
2000.0	31.024
