[SUMMARY]
Software Information
Software Name:	UVProbe
Version:	2.43
Mode:	Normal Mode

Data Information
Data is:	Original
Analyst:	
Date/Time:	06/03/2023 13:28:09
Comments:	

Instrument Information
Instrument Name:	SolidSpec3700
Instrument Type:	SolidSpec-3700 Series
Model (S/N):	SolidSpec3700 ( A11085100264CZ )

[METHOD]
[Measurement Properties]
Wavelength Range (nm.):	285,00 to 2000,00
Scan Speed:	Medium
Sampling Interval:	1,0
Auto Sampling Interval:	Disabled
Scan Mode:	Single

[Sample Preparation Properties]
Weight:	
Volume:	
Dilution:	
Path Length:	
Additional Information:	

[Instrument Properties]
Instrument Type:	SolidSpec-3700 Series
Measuring Mode:	Reflectance
Slit Width:	5,0 nm
Time Constant:	1,0 sec.
Source Lamp:	Auto
Light Source Change Wavelength:	282,00 nm
Detector Unit:	Integral Sphere
Detector Change Wavelength:	870,00 nm  1650,00 nm
Grating Change Wavelength:	800,00 nm
S/R Exchange:	Inverse
Detector Lock:	Auto
Slit Program:	Fixed
Beam Mode:	Double
Stair Correction:	Disable

[Attachment Properties]
Attachment:	None

[Operation]
Threshold:	0,0010000
Points:	4
InterPolate:	Disabled
Average:	Disabled

[DATA]
Wavelength	Data
285.0	4.300
286.0	4.371
287.0	4.419
288.0	4.431
289.0	4.446
290.0	4.511
291.0	4.543
292.0	4.560
293.0	4.576
294.0	4.606
295.0	4.641
296.0	4.621
297.0	4.637
298.0	4.641
299.0	4.660
300.0	4.669
301.0	4.711
302.0	4.731
303.0	4.707
304.0	4.698
305.0	4.715
306.0	4.747
307.0	4.741
308.0	4.720
309.0	4.704
310.0	4.688
311.0	4.714
312.0	4.709
313.0	4.707
314.0	4.687
315.0	4.691
316.0	4.669
317.0	4.663
318.0	4.642
319.0	4.655
320.0	4.640
321.0	4.655
322.0	4.645
323.0	4.629
324.0	4.623
325.0	4.625
326.0	4.628
327.0	4.604
328.0	4.591
329.0	4.595
330.0	4.599
331.0	4.612
332.0	4.626
333.0	4.611
334.0	4.608
335.0	4.575
336.0	4.601
337.0	4.597
338.0	4.626
339.0	4.621
340.0	4.631
341.0	4.626
342.0	4.624
343.0	4.603
344.0	4.587
345.0	4.571
346.0	4.576
347.0	4.563
348.0	4.579
349.0	4.579
350.0	4.579
351.0	4.591
352.0	4.583
353.0	4.588
354.0	4.554
355.0	4.571
356.0	4.602
357.0	4.609
358.0	4.587
359.0	4.556
360.0	4.543
361.0	4.547
362.0	4.541
363.0	4.538
364.0	4.525
365.0	4.530
366.0	4.551
367.0	4.563
368.0	4.572
369.0	4.568
370.0	4.581
371.0	4.595
372.0	4.608
373.0	4.629
374.0	4.649
375.0	4.679
376.0	4.687
377.0	4.708
378.0	4.720
379.0	4.743
380.0	4.786
381.0	4.820
382.0	4.861
383.0	4.879
384.0	4.904
385.0	4.932
386.0	4.959
387.0	5.001
388.0	5.035
389.0	5.059
390.0	5.068
391.0	5.080
392.0	5.090
393.0	5.106
394.0	5.121
395.0	5.145
396.0	5.167
397.0	5.175
398.0	5.189
399.0	5.196
400.0	5.211
401.0	5.205
402.0	5.220
403.0	5.218
404.0	5.223
405.0	5.219
406.0	5.210
407.0	5.212
408.0	5.200
409.0	5.196
410.0	5.183
411.0	5.192
412.0	5.202
413.0	5.215
414.0	5.214
415.0	5.216
416.0	5.214
417.0	5.210
418.0	5.213
419.0	5.214
420.0	5.222
421.0	5.215
422.0	5.215
423.0	5.215
424.0	5.223
425.0	5.210
426.0	5.190
427.0	5.167
428.0	5.165
429.0	5.144
430.0	5.126
431.0	5.101
432.0	5.087
433.0	5.065
434.0	5.032
435.0	5.008
436.0	4.981
437.0	4.961
438.0	4.926
439.0	4.901
440.0	4.869
441.0	4.840
442.0	4.815
443.0	4.778
444.0	4.748
445.0	4.709
446.0	4.679
447.0	4.648
448.0	4.610
449.0	4.574
450.0	4.532
451.0	4.492
452.0	4.457
453.0	4.424
454.0	4.393
455.0	4.364
456.0	4.335
457.0	4.306
458.0	4.279
459.0	4.243
460.0	4.205
461.0	4.170
462.0	4.148
463.0	4.128
464.0	4.096
465.0	4.068
466.0	4.046
467.0	4.038
468.0	4.022
469.0	4.012
470.0	3.993
471.0	3.981
472.0	3.972
473.0	3.970
474.0	3.968
475.0	3.958
476.0	3.948
477.0	3.940
478.0	3.926
479.0	3.908
480.0	3.894
481.0	3.886
482.0	3.880
483.0	3.869
484.0	3.859
485.0	3.852
486.0	3.844
487.0	3.844
488.0	3.838
489.0	3.826
490.0	3.810
491.0	3.808
492.0	3.810
493.0	3.801
494.0	3.794
495.0	3.781
496.0	3.786
497.0	3.777
498.0	3.777
499.0	3.763
500.0	3.758
501.0	3.743
502.0	3.737
503.0	3.730
504.0	3.734
505.0	3.736
506.0	3.731
507.0	3.720
508.0	3.714
509.0	3.707
510.0	3.702
511.0	3.697
512.0	3.686
513.0	3.670
514.0	3.655
515.0	3.648
516.0	3.649
517.0	3.640
518.0	3.636
519.0	3.621
520.0	3.607
521.0	3.590
522.0	3.576
523.0	3.569
524.0	3.560
525.0	3.551
526.0	3.539
527.0	3.513
528.0	3.492
529.0	3.464
530.0	3.453
531.0	3.431
532.0	3.419
533.0	3.399
534.0	3.376
535.0	3.352
536.0	3.336
537.0	3.325
538.0	3.309
539.0	3.282
540.0	3.257
541.0	3.233
542.0	3.206
543.0	3.180
544.0	3.156
545.0	3.132
546.0	3.111
547.0	3.084
548.0	3.061
549.0	3.033
550.0	3.006
551.0	2.975
552.0	2.946
553.0	2.921
554.0	2.901
555.0	2.881
556.0	2.859
557.0	2.830
558.0	2.800
559.0	2.773
560.0	2.749
561.0	2.720
562.0	2.692
563.0	2.664
564.0	2.637
565.0	2.609
566.0	2.589
567.0	2.568
568.0	2.542
569.0	2.511
570.0	2.481
571.0	2.454
572.0	2.432
573.0	2.410
574.0	2.393
575.0	2.372
576.0	2.350
577.0	2.329
578.0	2.303
579.0	2.283
580.0	2.260
581.0	2.245
582.0	2.232
583.0	2.222
584.0	2.209
585.0	2.196
586.0	2.186
587.0	2.181
588.0	2.168
589.0	2.156
590.0	2.148
591.0	2.139
592.0	2.135
593.0	2.121
594.0	2.119
595.0	2.112
596.0	2.109
597.0	2.100
598.0	2.096
599.0	2.103
600.0	2.101
601.0	2.103
602.0	2.093
603.0	2.101
604.0	2.102
605.0	2.110
606.0	2.112
607.0	2.120
608.0	2.126
609.0	2.131
610.0	2.137
611.0	2.138
612.0	2.157
613.0	2.167
614.0	2.189
615.0	2.198
616.0	2.214
617.0	2.223
618.0	2.232
619.0	2.250
620.0	2.265
621.0	2.279
622.0	2.294
623.0	2.320
624.0	2.347
625.0	2.374
626.0	2.399
627.0	2.417
628.0	2.435
629.0	2.454
630.0	2.479
631.0	2.503
632.0	2.524
633.0	2.552
634.0	2.584
635.0	2.611
636.0	2.635
637.0	2.656
638.0	2.695
639.0	2.728
640.0	2.760
641.0	2.790
642.0	2.820
643.0	2.860
644.0	2.896
645.0	2.934
646.0	2.960
647.0	2.991
648.0	3.024
649.0	3.070
650.0	3.107
651.0	3.140
652.0	3.171
653.0	3.206
654.0	3.246
655.0	3.284
656.0	3.312
657.0	3.339
658.0	3.364
659.0	3.391
660.0	3.428
661.0	3.465
662.0	3.498
663.0	3.532
664.0	3.567
665.0	3.611
666.0	3.650
667.0	3.700
668.0	3.748
669.0	3.799
670.0	3.850
671.0	3.896
672.0	3.952
673.0	3.998
674.0	4.060
675.0	4.099
676.0	4.142
677.0	4.179
678.0	4.229
679.0	4.273
680.0	4.306
681.0	4.357
682.0	4.391
683.0	4.438
684.0	4.470
685.0	4.518
686.0	4.555
687.0	4.584
688.0	4.623
689.0	4.663
690.0	4.705
691.0	4.748
692.0	4.792
693.0	4.832
694.0	4.866
695.0	4.882
696.0	4.931
697.0	4.969
698.0	5.033
699.0	5.041
700.0	5.096
701.0	5.119
702.0	5.179
703.0	5.197
704.0	5.235
705.0	5.266
706.0	5.312
707.0	5.357
708.0	5.390
709.0	5.413
710.0	5.438
711.0	5.479
712.0	5.534
713.0	5.568
714.0	5.612
715.0	5.631
716.0	5.675
717.0	5.716
718.0	5.764
719.0	5.792
720.0	5.840
721.0	5.876
722.0	5.933
723.0	5.963
724.0	6.006
725.0	6.065
726.0	6.095
727.0	6.159
728.0	6.189
729.0	6.249
730.0	6.274
731.0	6.314
732.0	6.343
733.0	6.392
734.0	6.457
735.0	6.506
736.0	6.542
737.0	6.569
738.0	6.606
739.0	6.647
740.0	6.685
741.0	6.754
742.0	6.805
743.0	6.860
744.0	6.884
745.0	6.947
746.0	6.980
747.0	7.027
748.0	7.026
749.0	7.054
750.0	7.093
751.0	7.143
752.0	7.195
753.0	7.258
754.0	7.315
755.0	7.361
756.0	7.398
757.0	7.458
758.0	7.497
759.0	7.537
760.0	7.556
761.0	7.628
762.0	7.656
763.0	7.722
764.0	7.726
765.0	7.808
766.0	7.831
767.0	7.883
768.0	7.892
769.0	7.936
770.0	7.965
771.0	7.994
772.0	8.024
773.0	8.083
774.0	8.108
775.0	8.124
776.0	8.153
777.0	8.191
778.0	8.240
779.0	8.233
780.0	8.243
781.0	8.248
782.0	8.321
783.0	8.366
784.0	8.388
785.0	8.381
786.0	8.410
787.0	8.460
788.0	8.504
789.0	8.536
790.0	8.582
791.0	8.622
792.0	8.663
793.0	8.706
794.0	8.755
795.0	8.803
796.0	8.842
797.0	8.884
798.0	8.934
799.0	8.950
800.0	9.084
801.0	9.213
802.0	9.356
803.0	9.393
804.0	9.423
805.0	9.478
806.0	9.496
807.0	9.540
808.0	9.604
809.0	9.669
810.0	9.719
811.0	9.725
812.0	9.753
813.0	9.788
814.0	9.834
815.0	9.877
816.0	9.904
817.0	9.939
818.0	9.987
819.0	10.042
820.0	10.093
821.0	10.117
822.0	10.141
823.0	10.164
824.0	10.222
825.0	10.261
826.0	10.327
827.0	10.372
828.0	10.410
829.0	10.444
830.0	10.468
831.0	10.507
832.0	10.540
833.0	10.587
834.0	10.647
835.0	10.680
836.0	10.728
837.0	10.761
838.0	10.800
839.0	10.847
840.0	10.874
841.0	10.922
842.0	10.962
843.0	11.041
844.0	11.094
845.0	11.147
846.0	11.192
847.0	11.232
848.0	11.258
849.0	11.262
850.0	11.255
851.0	11.258
852.0	11.290
853.0	11.358
854.0	11.383
855.0	11.415
856.0	11.392
857.0	11.416
858.0	11.467
859.0	11.528
860.0	11.562
861.0	11.514
862.0	11.522
863.0	11.635
864.0	11.667
865.0	11.725
866.0	11.676
867.0	11.793
868.0	11.789
869.0	11.823
870.0	11.903
871.0	12.268
872.0	12.583
873.0	12.490
874.0	12.628
875.0	12.626
876.0	12.665
877.0	12.558
878.0	12.800
879.0	13.117
880.0	13.146
881.0	13.076
882.0	13.020
883.0	13.182
884.0	13.263
885.0	13.667
886.0	13.762
887.0	13.780
888.0	13.611
889.0	13.385
890.0	13.259
891.0	13.238
892.0	13.264
893.0	13.370
894.0	13.332
895.0	13.399
896.0	13.454
897.0	13.526
898.0	13.598
899.0	13.537
900.0	13.380
901.0	13.318
902.0	13.256
903.0	13.336
904.0	13.345
905.0	13.229
906.0	13.283
907.0	13.288
908.0	13.472
909.0	13.448
910.0	13.458
911.0	13.357
912.0	13.397
913.0	13.355
914.0	13.540
915.0	13.496
916.0	13.475
917.0	13.290
918.0	13.244
919.0	13.336
920.0	13.427
921.0	13.550
922.0	13.623
923.0	13.613
924.0	13.505
925.0	13.468
926.0	13.551
927.0	13.653
928.0	13.624
929.0	13.627
930.0	13.660
931.0	13.719
932.0	13.687
933.0	13.652
934.0	13.597
935.0	13.650
936.0	13.730
937.0	13.731
938.0	13.746
939.0	13.740
940.0	13.744
941.0	13.713
942.0	13.650
943.0	13.709
944.0	13.693
945.0	13.770
946.0	13.793
947.0	13.788
948.0	13.737
949.0	13.709
950.0	13.707
951.0	13.753
952.0	13.750
953.0	13.792
954.0	13.789
955.0	13.794
956.0	13.834
957.0	13.778
958.0	13.803
959.0	13.821
960.0	13.859
961.0	13.870
962.0	13.835
963.0	13.845
964.0	13.846
965.0	13.884
966.0	13.977
967.0	13.963
968.0	13.938
969.0	13.916
970.0	13.954
971.0	13.960
972.0	13.933
973.0	13.916
974.0	14.003
975.0	14.036
976.0	14.056
977.0	14.005
978.0	13.989
979.0	13.968
980.0	13.943
981.0	13.924
982.0	13.946
983.0	13.947
984.0	13.972
985.0	13.985
986.0	14.009
987.0	14.035
988.0	14.039
989.0	14.067
990.0	14.029
991.0	14.037
992.0	14.022
993.0	14.076
994.0	14.061
995.0	14.066
996.0	14.049
997.0	14.062
998.0	14.030
999.0	13.999
1000.0	13.988
1001.0	14.002
1002.0	14.028
1003.0	14.041
1004.0	14.061
1005.0	14.069
1006.0	14.050
1007.0	14.046
1008.0	14.026
1009.0	14.052
1010.0	14.037
1011.0	14.042
1012.0	14.012
1013.0	14.021
1014.0	14.019
1015.0	14.042
1016.0	14.030
1017.0	14.036
1018.0	14.025
1019.0	14.022
1020.0	14.014
1021.0	14.011
1022.0	14.024
1023.0	13.999
1024.0	14.008
1025.0	13.999
1026.0	14.026
1027.0	14.019
1028.0	14.012
1029.0	14.003
1030.0	13.992
1031.0	14.008
1032.0	14.039
1033.0	14.030
1034.0	13.999
1035.0	13.945
1036.0	13.923
1037.0	13.954
1038.0	13.978
1039.0	13.988
1040.0	13.965
1041.0	13.941
1042.0	13.934
1043.0	13.931
1044.0	13.937
1045.0	13.950
1046.0	13.961
1047.0	13.953
1048.0	13.944
1049.0	13.910
1050.0	13.910
1051.0	13.905
1052.0	13.918
1053.0	13.908
1054.0	13.897
1055.0	13.877
1056.0	13.874
1057.0	13.874
1058.0	13.872
1059.0	13.849
1060.0	13.859
1061.0	13.853
1062.0	13.874
1063.0	13.840
1064.0	13.812
1065.0	13.787
1066.0	13.783
1067.0	13.800
1068.0	13.789
1069.0	13.802
1070.0	13.801
1071.0	13.807
1072.0	13.783
1073.0	13.761
1074.0	13.753
1075.0	13.746
1076.0	13.741
1077.0	13.728
1078.0	13.724
1079.0	13.697
1080.0	13.712
1081.0	13.691
1082.0	13.699
1083.0	13.681
1084.0	13.690
1085.0	13.676
1086.0	13.657
1087.0	13.646
1088.0	13.633
1089.0	13.606
1090.0	13.576
1091.0	13.570
1092.0	13.567
1093.0	13.560
1094.0	13.571
1095.0	13.569
1096.0	13.566
1097.0	13.543
1098.0	13.524
1099.0	13.508
1100.0	13.493
1101.0	13.481
1102.0	13.473
1103.0	13.464
1104.0	13.439
1105.0	13.426
1106.0	13.417
1107.0	13.420
1108.0	13.414
1109.0	13.383
1110.0	13.380
1111.0	13.367
1112.0	13.378
1113.0	13.350
1114.0	13.339
1115.0	13.318
1116.0	13.307
1117.0	13.278
1118.0	13.277
1119.0	13.284
1120.0	13.301
1121.0	13.288
1122.0	13.288
1123.0	13.284
1124.0	13.264
1125.0	13.248
1126.0	13.227
1127.0	13.229
1128.0	13.208
1129.0	13.202
1130.0	13.191
1131.0	13.186
1132.0	13.169
1133.0	13.167
1134.0	13.193
1135.0	13.216
1136.0	13.198
1137.0	13.165
1138.0	13.168
1139.0	13.188
1140.0	13.194
1141.0	13.162
1142.0	13.154
1143.0	13.142
1144.0	13.135
1145.0	13.135
1146.0	13.126
1147.0	13.134
1148.0	13.129
1149.0	13.134
1150.0	13.125
1151.0	13.116
1152.0	13.120
1153.0	13.123
1154.0	13.130
1155.0	13.142
1156.0	13.141
1157.0	13.118
1158.0	13.107
1159.0	13.109
1160.0	13.123
1161.0	13.134
1162.0	13.140
1163.0	13.155
1164.0	13.163
1165.0	13.160
1166.0	13.170
1167.0	13.145
1168.0	13.164
1169.0	13.149
1170.0	13.145
1171.0	13.130
1172.0	13.134
1173.0	13.155
1174.0	13.156
1175.0	13.149
1176.0	13.149
1177.0	13.152
1178.0	13.173
1179.0	13.171
1180.0	13.186
1181.0	13.194
1182.0	13.208
1183.0	13.209
1184.0	13.206
1185.0	13.227
1186.0	13.237
1187.0	13.264
1188.0	13.252
1189.0	13.255
1190.0	13.251
1191.0	13.267
1192.0	13.283
1193.0	13.285
1194.0	13.323
1195.0	13.326
1196.0	13.336
1197.0	13.329
1198.0	13.354
1199.0	13.379
1200.0	13.392
1201.0	13.405
1202.0	13.418
1203.0	13.455
1204.0	13.478
1205.0	13.485
1206.0	13.479
1207.0	13.502
1208.0	13.542
1209.0	13.559
1210.0	13.560
1211.0	13.578
1212.0	13.615
1213.0	13.652
1214.0	13.674
1215.0	13.703
1216.0	13.731
1217.0	13.747
1218.0	13.759
1219.0	13.786
1220.0	13.813
1221.0	13.836
1222.0	13.856
1223.0	13.888
1224.0	13.920
1225.0	13.924
1226.0	13.956
1227.0	13.982
1228.0	14.027
1229.0	14.039
1230.0	14.059
1231.0	14.083
1232.0	14.118
1233.0	14.157
1234.0	14.183
1235.0	14.218
1236.0	14.252
1237.0	14.296
1238.0	14.331
1239.0	14.370
1240.0	14.387
1241.0	14.403
1242.0	14.420
1243.0	14.460
1244.0	14.482
1245.0	14.512
1246.0	14.546
1247.0	14.598
1248.0	14.639
1249.0	14.684
1250.0	14.723
1251.0	14.754
1252.0	14.782
1253.0	14.831
1254.0	14.871
1255.0	14.914
1256.0	14.956
1257.0	15.008
1258.0	15.032
1259.0	15.054
1260.0	15.070
1261.0	15.109
1262.0	15.133
1263.0	15.184
1264.0	15.225
1265.0	15.279
1266.0	15.317
1267.0	15.362
1268.0	15.383
1269.0	15.421
1270.0	15.442
1271.0	15.479
1272.0	15.503
1273.0	15.551
1274.0	15.593
1275.0	15.648
1276.0	15.685
1277.0	15.735
1278.0	15.776
1279.0	15.830
1280.0	15.869
1281.0	15.894
1282.0	15.914
1283.0	15.948
1284.0	15.986
1285.0	16.013
1286.0	16.065
1287.0	16.111
1288.0	16.182
1289.0	16.232
1290.0	16.287
1291.0	16.334
1292.0	16.366
1293.0	16.389
1294.0	16.408
1295.0	16.466
1296.0	16.536
1297.0	16.595
1298.0	16.621
1299.0	16.645
1300.0	16.688
1301.0	16.751
1302.0	16.811
1303.0	16.868
1304.0	16.923
1305.0	16.974
1306.0	17.048
1307.0	17.107
1308.0	17.182
1309.0	17.213
1310.0	17.239
1311.0	17.270
1312.0	17.302
1313.0	17.355
1314.0	17.413
1315.0	17.476
1316.0	17.543
1317.0	17.615
1318.0	17.641
1319.0	17.687
1320.0	17.687
1321.0	17.742
1322.0	17.769
1323.0	17.804
1324.0	17.872
1325.0	17.926
1326.0	18.023
1327.0	18.054
1328.0	18.073
1329.0	18.086
1330.0	18.159
1331.0	18.261
1332.0	18.318
1333.0	18.343
1334.0	18.362
1335.0	18.435
1336.0	18.501
1337.0	18.561
1338.0	18.564
1339.0	18.625
1340.0	18.699
1341.0	18.793
1342.0	18.850
1343.0	18.870
1344.0	18.937
1345.0	18.976
1346.0	19.050
1347.0	19.052
1348.0	19.103
1349.0	19.127
1350.0	19.192
1351.0	19.208
1352.0	19.257
1353.0	19.309
1354.0	19.369
1355.0	19.420
1356.0	19.438
1357.0	19.457
1358.0	19.489
1359.0	19.546
1360.0	19.619
1361.0	19.654
1362.0	19.700
1363.0	19.732
1364.0	19.791
1365.0	19.865
1366.0	19.927
1367.0	19.984
1368.0	20.028
1369.0	20.082
1370.0	20.137
1371.0	20.197
1372.0	20.259
1373.0	20.317
1374.0	20.360
1375.0	20.406
1376.0	20.462
1377.0	20.515
1378.0	20.554
1379.0	20.626
1380.0	20.672
1381.0	20.766
1382.0	20.773
1383.0	20.829
1384.0	20.851
1385.0	20.952
1386.0	21.027
1387.0	21.105
1388.0	21.144
1389.0	21.181
1390.0	21.252
1391.0	21.329
1392.0	21.407
1393.0	21.463
1394.0	21.519
1395.0	21.583
1396.0	21.636
1397.0	21.712
1398.0	21.766
1399.0	21.856
1400.0	21.913
1401.0	21.973
1402.0	22.053
1403.0	22.108
1404.0	22.201
1405.0	22.203
1406.0	22.267
1407.0	22.277
1408.0	22.383
1409.0	22.442
1410.0	22.530
1411.0	22.577
1412.0	22.643
1413.0	22.717
1414.0	22.774
1415.0	22.822
1416.0	22.879
1417.0	22.949
1418.0	22.994
1419.0	23.023
1420.0	23.097
1421.0	23.163
1422.0	23.228
1423.0	23.247
1424.0	23.298
1425.0	23.333
1426.0	23.373
1427.0	23.457
1428.0	23.508
1429.0	23.591
1430.0	23.600
1431.0	23.670
1432.0	23.704
1433.0	23.754
1434.0	23.786
1435.0	23.824
1436.0	23.864
1437.0	23.929
1438.0	23.967
1439.0	24.021
1440.0	24.055
1441.0	24.086
1442.0	24.102
1443.0	24.128
1444.0	24.198
1445.0	24.261
1446.0	24.306
1447.0	24.332
1448.0	24.355
1449.0	24.389
1450.0	24.421
1451.0	24.476
1452.0	24.519
1453.0	24.562
1454.0	24.599
1455.0	24.650
1456.0	24.694
1457.0	24.724
1458.0	24.744
1459.0	24.759
1460.0	24.791
1461.0	24.824
1462.0	24.852
1463.0	24.877
1464.0	24.900
1465.0	24.914
1466.0	24.956
1467.0	24.997
1468.0	25.028
1469.0	25.056
1470.0	25.065
1471.0	25.084
1472.0	25.091
1473.0	25.105
1474.0	25.154
1475.0	25.208
1476.0	25.260
1477.0	25.275
1478.0	25.302
1479.0	25.333
1480.0	25.365
1481.0	25.388
1482.0	25.410
1483.0	25.418
1484.0	25.380
1485.0	25.383
1486.0	25.443
1487.0	25.554
1488.0	25.596
1489.0	25.594
1490.0	25.603
1491.0	25.615
1492.0	25.626
1493.0	25.584
1494.0	25.620
1495.0	25.668
1496.0	25.700
1497.0	25.704
1498.0	25.743
1499.0	25.805
1500.0	25.851
1501.0	25.833
1502.0	25.822
1503.0	25.794
1504.0	25.845
1505.0	25.868
1506.0	25.934
1507.0	25.907
1508.0	25.956
1509.0	25.932
1510.0	25.973
1511.0	25.977
1512.0	25.990
1513.0	26.030
1514.0	26.076
1515.0	26.125
1516.0	26.142
1517.0	26.116
1518.0	26.151
1519.0	26.201
1520.0	26.264
1521.0	26.282
1522.0	26.304
1523.0	26.328
1524.0	26.374
1525.0	26.356
1526.0	26.367
1527.0	26.335
1528.0	26.367
1529.0	26.411
1530.0	26.448
1531.0	26.469
1532.0	26.461
1533.0	26.474
1534.0	26.488
1535.0	26.505
1536.0	26.536
1537.0	26.586
1538.0	26.590
1539.0	26.629
1540.0	26.618
1541.0	26.644
1542.0	26.663
1543.0	26.686
1544.0	26.762
1545.0	26.795
1546.0	26.828
1547.0	26.793
1548.0	26.813
1549.0	26.840
1550.0	26.873
1551.0	26.902
1552.0	26.933
1553.0	26.945
1554.0	26.953
1555.0	26.961
1556.0	26.979
1557.0	27.017
1558.0	27.068
1559.0	27.116
1560.0	27.135
1561.0	27.155
1562.0	27.136
1563.0	27.154
1564.0	27.169
1565.0	27.257
1566.0	27.276
1567.0	27.284
1568.0	27.320
1569.0	27.346
1570.0	27.369
1571.0	27.378
1572.0	27.402
1573.0	27.435
1574.0	27.478
1575.0	27.467
1576.0	27.479
1577.0	27.466
1578.0	27.496
1579.0	27.529
1580.0	27.579
1581.0	27.618
1582.0	27.624
1583.0	27.576
1584.0	27.608
1585.0	27.641
1586.0	27.739
1587.0	27.744
1588.0	27.745
1589.0	27.747
1590.0	27.821
1591.0	27.872
1592.0	27.845
1593.0	27.819
1594.0	27.834
1595.0	27.902
1596.0	27.941
1597.0	27.949
1598.0	27.987
1599.0	28.001
1600.0	28.025
1601.0	28.013
1602.0	28.070
1603.0	28.100
1604.0	28.158
1605.0	28.135
1606.0	28.166
1607.0	28.158
1608.0	28.187
1609.0	28.215
1610.0	28.208
1611.0	28.237
1612.0	28.245
1613.0	28.257
1614.0	28.250
1615.0	28.265
1616.0	28.290
1617.0	28.317
1618.0	28.323
1619.0	28.369
1620.0	28.405
1621.0	28.386
1622.0	28.412
1623.0	28.418
1624.0	28.480
1625.0	28.492
1626.0	28.470
1627.0	28.459
1628.0	28.487
1629.0	28.566
1630.0	28.558
1631.0	28.529
1632.0	28.528
1633.0	28.622
1634.0	28.681
1635.0	28.673
1636.0	28.621
1637.0	28.646
1638.0	28.762
1639.0	28.818
1640.0	28.825
1641.0	28.802
1642.0	28.865
1643.0	28.900
1644.0	28.879
1645.0	28.890
1646.0	28.917
1647.0	28.952
1648.0	28.956
1649.0	28.959
1650.0	27.570
1651.0	26.158
1652.0	24.557
1653.0	24.341
1654.0	24.258
1655.0	24.716
1656.0	24.559
1657.0	24.557
1658.0	24.302
1659.0	24.449
1660.0	24.515
1661.0	24.241
1662.0	24.133
1663.0	24.287
1664.0	24.752
1665.0	24.960
1666.0	24.655
1667.0	24.743
1668.0	24.779
1669.0	24.809
1670.0	24.547
1671.0	25.088
1672.0	25.363
1673.0	25.218
1674.0	24.822
1675.0	24.561
1676.0	24.449
1677.0	24.453
1678.0	24.571
1679.0	24.824
1680.0	25.204
1681.0	25.532
1682.0	25.374
1683.0	25.335
1684.0	25.179
1685.0	25.118
1686.0	24.763
1687.0	25.166
1688.0	25.864
1689.0	25.744
1690.0	25.477
1691.0	25.152
1692.0	25.363
1693.0	25.348
1694.0	25.140
1695.0	25.130
1696.0	25.527
1697.0	25.614
1698.0	25.136
1699.0	24.828
1700.0	25.219
1701.0	25.855
1702.0	25.544
1703.0	25.602
1704.0	25.530
1705.0	26.096
1706.0	25.626
1707.0	25.713
1708.0	25.623
1709.0	25.616
1710.0	25.285
1711.0	25.292
1712.0	25.672
1713.0	25.586
1714.0	25.628
1715.0	25.469
1716.0	25.529
1717.0	25.213
1718.0	25.216
1719.0	25.754
1720.0	25.974
1721.0	25.854
1722.0	26.142
1723.0	25.941
1724.0	26.224
1725.0	26.129
1726.0	26.590
1727.0	26.130
1728.0	25.479
1729.0	25.117
1730.0	25.566
1731.0	25.288
1732.0	25.361
1733.0	26.044
1734.0	26.715
1735.0	26.447
1736.0	26.105
1737.0	26.127
1738.0	26.388
1739.0	25.857
1740.0	25.759
1741.0	25.481
1742.0	25.508
1743.0	25.731
1744.0	25.772
1745.0	25.517
1746.0	25.530
1747.0	25.714
1748.0	26.572
1749.0	26.546
1750.0	26.673
1751.0	26.120
1752.0	26.043
1753.0	26.729
1754.0	27.081
1755.0	27.258
1756.0	26.954
1757.0	27.049
1758.0	26.536
1759.0	25.998
1760.0	25.568
1761.0	26.061
1762.0	26.247
1763.0	26.589
1764.0	26.880
1765.0	26.802
1766.0	26.520
1767.0	25.988
1768.0	26.093
1769.0	26.446
1770.0	26.304
1771.0	25.588
1772.0	25.128
1773.0	24.947
1774.0	25.814
1775.0	26.075
1776.0	26.395
1777.0	26.350
1778.0	26.427
1779.0	27.039
1780.0	26.646
1781.0	26.431
1782.0	26.389
1783.0	26.958
1784.0	27.381
1785.0	27.009
1786.0	26.333
1787.0	26.204
1788.0	26.620
1789.0	27.583
1790.0	27.534
1791.0	27.095
1792.0	26.555
1793.0	26.718
1794.0	27.590
1795.0	27.638
1796.0	27.743
1797.0	27.002
1798.0	26.916
1799.0	26.878
1800.0	26.656
1801.0	26.505
1802.0	25.951
1803.0	26.053
1804.0	26.488
1805.0	26.707
1806.0	26.475
1807.0	26.013
1808.0	26.360
1809.0	26.613
1810.0	26.902
1811.0	26.837
1812.0	26.594
1813.0	26.499
1814.0	26.057
1815.0	26.058
1816.0	26.175
1817.0	26.148
1818.0	26.781
1819.0	26.785
1820.0	27.105
1821.0	27.658
1822.0	26.583
1823.0	25.985
1824.0	25.383
1825.0	25.788
1826.0	26.320
1827.0	25.793
1828.0	26.512
1829.0	26.474
1830.0	26.309
1831.0	26.418
1832.0	26.404
1833.0	27.685
1834.0	27.973
1835.0	27.983
1836.0	27.632
1837.0	27.172
1838.0	27.441
1839.0	26.364
1840.0	26.202
1841.0	26.520
1842.0	27.126
1843.0	27.943
1844.0	28.049
1845.0	28.377
1846.0	27.958
1847.0	26.789
1848.0	27.581
1849.0	27.872
1850.0	28.045
1851.0	27.707
1852.0	26.719
1853.0	26.237
1854.0	24.956
1855.0	25.514
1856.0	26.417
1857.0	27.141
1858.0	27.274
1859.0	26.636
1860.0	26.696
1861.0	26.707
1862.0	27.741
1863.0	27.177
1864.0	27.061
1865.0	27.877
1866.0	28.996
1867.0	29.405
1868.0	28.687
1869.0	27.794
1870.0	27.121
1871.0	26.967
1872.0	27.824
1873.0	28.833
1874.0	29.231
1875.0	29.492
1876.0	28.677
1877.0	28.807
1878.0	27.930
1879.0	28.587
1880.0	27.877
1881.0	28.968
1882.0	29.240
1883.0	30.455
1884.0	30.493
1885.0	30.276
1886.0	29.593
1887.0	29.046
1888.0	29.266
1889.0	28.821
1890.0	29.624
1891.0	29.119
1892.0	30.089
1893.0	29.733
1894.0	30.157
1895.0	29.809
1896.0	28.790
1897.0	29.311
1898.0	29.740
1899.0	30.153
1900.0	29.431
1901.0	29.904
1902.0	30.046
1903.0	30.573
1904.0	30.742
1905.0	31.999
1906.0	32.164
1907.0	31.818
1908.0	31.651
1909.0	31.148
1910.0	30.410
1911.0	29.340
1912.0	29.960
1913.0	29.655
1914.0	29.466
1915.0	29.410
1916.0	30.479
1917.0	31.045
1918.0	31.940
1919.0	32.112
1920.0	32.705
1921.0	32.021
1922.0	32.152
1923.0	32.252
1924.0	31.762
1925.0	31.616
1926.0	31.768
1927.0	31.646
1928.0	31.263
1929.0	32.504
1930.0	33.688
1931.0	34.877
1932.0	32.878
1933.0	32.449
1934.0	30.601
1935.0	31.127
1936.0	31.903
1937.0	33.232
1938.0	33.590
1939.0	31.950
1940.0	32.562
1941.0	31.891
1942.0	33.201
1943.0	31.182
1944.0	32.814
1945.0	32.805
1946.0	34.382
1947.0	33.967
1948.0	33.398
1949.0	31.531
1950.0	30.804
1951.0	31.527
1952.0	32.854
1953.0	31.035
1954.0	30.322
1955.0	30.000
1956.0	31.614
1957.0	30.720
1958.0	30.798
1959.0	31.238
1960.0	30.966
1961.0	30.218
1962.0	29.803
1963.0	30.720
1964.0	32.192
1965.0	32.574
1966.0	31.352
1967.0	30.737
1968.0	31.081
1969.0	33.273
1970.0	33.413
1971.0	32.649
1972.0	31.249
1973.0	31.642
1974.0	31.022
1975.0	32.865
1976.0	31.806
1977.0	32.575
1978.0	30.605
1979.0	31.865
1980.0	30.584
1981.0	31.130
1982.0	30.888
1983.0	31.012
1984.0	29.573
1985.0	29.086
1986.0	30.833
1987.0	34.316
1988.0	33.624
1989.0	32.525
1990.0	30.784
1991.0	30.995
1992.0	31.343
1993.0	31.389
1994.0	31.047
1995.0	30.611
1996.0	30.424
1997.0	30.226
1998.0	30.684
1999.0	29.770
2000.0	29.918
