[SUMMARY]
Software Information
Software Name:	UVProbe
Version:	2.43
Mode:	Normal Mode

Data Information
Data is:	Original
Analyst:	
Date/Time:	10/02/2023 19:45:53
Comments:	

Instrument Information
Instrument Name:	SolidSpec3700
Instrument Type:	SolidSpec-3700 Series
Model (S/N):	SolidSpec3700 ( A11085100264CZ )

[METHOD]
[Measurement Properties]
Wavelength Range (nm.):	300,00 to 1400,00
Scan Speed:	Medium
Sampling Interval:	1,0
Auto Sampling Interval:	Disabled
Scan Mode:	Single

[Sample Preparation Properties]
Weight:	
Volume:	
Dilution:	
Path Length:	
Additional Information:	

[Instrument Properties]
Instrument Type:	SolidSpec-3700 Series
Measuring Mode:	Reflectance
Slit Width:	5,0 nm
Time Constant:	1,0 sec.
Source Lamp:	Auto
Light Source Change Wavelength:	285,00 nm
Detector Unit:	Integral Sphere
Detector Change Wavelength:	900,00 nm  1650,00 nm
Grating Change Wavelength:	800,00 nm
S/R Exchange:	Inverse
Detector Lock:	Auto
Slit Program:	Fixed
Beam Mode:	Double
Stair Correction:	Disable

[Attachment Properties]
Attachment:	X-Y Stage
Sequence File:	Positions.xys

[Operation]
Threshold:	0,0010000
Points:	4
InterPolate:	Disabled
Average:	Disabled

[DATA]
Wavelength	Data
300.0	7.436
301.0	7.421
302.0	7.413
303.0	7.467
304.0	7.480
305.0	7.472
306.0	7.447
307.0	7.373
308.0	7.375
309.0	7.348
310.0	7.412
311.0	7.358
312.0	7.288
313.0	7.198
314.0	7.124
315.0	7.073
316.0	6.997
317.0	6.944
318.0	6.874
319.0	6.766
320.0	6.675
321.0	6.624
322.0	6.550
323.0	6.486
324.0	6.375
325.0	6.313
326.0	6.220
327.0	6.142
328.0	6.079
329.0	5.984
330.0	5.912
331.0	5.789
332.0	5.716
333.0	5.633
334.0	5.592
335.0	5.548
336.0	5.508
337.0	5.425
338.0	5.336
339.0	5.285
340.0	5.248
341.0	5.216
342.0	5.176
343.0	5.147
344.0	5.145
345.0	5.108
346.0	5.083
347.0	5.040
348.0	5.025
349.0	5.023
350.0	4.998
351.0	4.974
352.0	4.981
353.0	4.999
354.0	5.008
355.0	4.997
356.0	5.009
357.0	5.042
358.0	5.051
359.0	5.036
360.0	5.037
361.0	5.039
362.0	5.066
363.0	5.076
364.0	5.104
365.0	5.117
366.0	5.144
367.0	5.175
368.0	5.228
369.0	5.272
370.0	5.326
371.0	5.373
372.0	5.400
373.0	5.452
374.0	5.494
375.0	5.551
376.0	5.588
377.0	5.619
378.0	5.680
379.0	5.719
380.0	5.775
381.0	5.807
382.0	5.859
383.0	5.903
384.0	5.977
385.0	6.029
386.0	6.094
387.0	6.117
388.0	6.163
389.0	6.199
390.0	6.251
391.0	6.297
392.0	6.356
393.0	6.420
394.0	6.475
395.0	6.510
396.0	6.550
397.0	6.583
398.0	6.629
399.0	6.680
400.0	6.717
401.0	6.760
402.0	6.776
403.0	6.818
404.0	6.848
405.0	6.888
406.0	6.909
407.0	6.933
408.0	6.957
409.0	6.990
410.0	7.019
411.0	7.050
412.0	7.084
413.0	7.138
414.0	7.185
415.0	7.229
416.0	7.259
417.0	7.282
418.0	7.316
419.0	7.349
420.0	7.380
421.0	7.411
422.0	7.425
423.0	7.440
424.0	7.447
425.0	7.466
426.0	7.479
427.0	7.475
428.0	7.478
429.0	7.479
430.0	7.494
431.0	7.485
432.0	7.472
433.0	7.448
434.0	7.425
435.0	7.401
436.0	7.398
437.0	7.389
438.0	7.383
439.0	7.350
440.0	7.331
441.0	7.300
442.0	7.286
443.0	7.268
444.0	7.264
445.0	7.246
446.0	7.224
447.0	7.200
448.0	7.186
449.0	7.174
450.0	7.164
451.0	7.162
452.0	7.156
453.0	7.140
454.0	7.131
455.0	7.126
456.0	7.134
457.0	7.140
458.0	7.147
459.0	7.154
460.0	7.155
461.0	7.157
462.0	7.170
463.0	7.177
464.0	7.187
465.0	7.192
466.0	7.207
467.0	7.222
468.0	7.234
469.0	7.246
470.0	7.257
471.0	7.268
472.0	7.284
473.0	7.303
474.0	7.317
475.0	7.332
476.0	7.349
477.0	7.371
478.0	7.375
479.0	7.380
480.0	7.383
481.0	7.398
482.0	7.410
483.0	7.419
484.0	7.431
485.0	7.427
486.0	7.436
487.0	7.436
488.0	7.445
489.0	7.454
490.0	7.462
491.0	7.469
492.0	7.456
493.0	7.458
494.0	7.458
495.0	7.464
496.0	7.465
497.0	7.465
498.0	7.475
499.0	7.471
500.0	7.461
501.0	7.456
502.0	7.451
503.0	7.456
504.0	7.437
505.0	7.444
506.0	7.446
507.0	7.462
508.0	7.455
509.0	7.440
510.0	7.425
511.0	7.408
512.0	7.399
513.0	7.390
514.0	7.382
515.0	7.377
516.0	7.365
517.0	7.350
518.0	7.329
519.0	7.315
520.0	7.314
521.0	7.305
522.0	7.284
523.0	7.264
524.0	7.244
525.0	7.229
526.0	7.197
527.0	7.179
528.0	7.164
529.0	7.148
530.0	7.127
531.0	7.097
532.0	7.082
533.0	7.066
534.0	7.056
535.0	7.040
536.0	7.012
537.0	6.990
538.0	6.951
539.0	6.935
540.0	6.912
541.0	6.914
542.0	6.902
543.0	6.881
544.0	6.855
545.0	6.837
546.0	6.813
547.0	6.790
548.0	6.772
549.0	6.759
550.0	6.737
551.0	6.711
552.0	6.686
553.0	6.679
554.0	6.673
555.0	6.670
556.0	6.649
557.0	6.626
558.0	6.606
559.0	6.595
560.0	6.587
561.0	6.580
562.0	6.564
563.0	6.550
564.0	6.530
565.0	6.525
566.0	6.520
567.0	6.516
568.0	6.508
569.0	6.496
570.0	6.482
571.0	6.475
572.0	6.472
573.0	6.462
574.0	6.455
575.0	6.443
576.0	6.449
577.0	6.440
578.0	6.437
579.0	6.434
580.0	6.438
581.0	6.435
582.0	6.433
583.0	6.436
584.0	6.442
585.0	6.442
586.0	6.445
587.0	6.456
588.0	6.467
589.0	6.460
590.0	6.455
591.0	6.449
592.0	6.460
593.0	6.470
594.0	6.473
595.0	6.478
596.0	6.480
597.0	6.499
598.0	6.502
599.0	6.518
600.0	6.517
601.0	6.530
602.0	6.535
603.0	6.553
604.0	6.572
605.0	6.591
606.0	6.600
607.0	6.606
608.0	6.610
609.0	6.618
610.0	6.624
611.0	6.635
612.0	6.650
613.0	6.673
614.0	6.688
615.0	6.703
616.0	6.709
617.0	6.727
618.0	6.747
619.0	6.758
620.0	6.771
621.0	6.784
622.0	6.805
623.0	6.820
624.0	6.843
625.0	6.866
626.0	6.888
627.0	6.909
628.0	6.929
629.0	6.938
630.0	6.957
631.0	6.977
632.0	6.996
633.0	7.000
634.0	7.010
635.0	7.041
636.0	7.077
637.0	7.093
638.0	7.121
639.0	7.142
640.0	7.167
641.0	7.175
642.0	7.190
643.0	7.201
644.0	7.203
645.0	7.213
646.0	7.241
647.0	7.288
648.0	7.307
649.0	7.334
650.0	7.344
651.0	7.376
652.0	7.396
653.0	7.420
654.0	7.446
655.0	7.462
656.0	7.477
657.0	7.483
658.0	7.496
659.0	7.511
660.0	7.533
661.0	7.557
662.0	7.580
663.0	7.596
664.0	7.618
665.0	7.642
666.0	7.673
667.0	7.699
668.0	7.718
669.0	7.730
670.0	7.756
671.0	7.779
672.0	7.815
673.0	7.848
674.0	7.883
675.0	7.908
676.0	7.931
677.0	7.953
678.0	7.966
679.0	7.969
680.0	7.985
681.0	8.019
682.0	8.036
683.0	8.043
684.0	8.054
685.0	8.077
686.0	8.105
687.0	8.114
688.0	8.133
689.0	8.147
690.0	8.154
691.0	8.180
692.0	8.205
693.0	8.240
694.0	8.250
695.0	8.255
696.0	8.264
697.0	8.291
698.0	8.303
699.0	8.305
700.0	8.322
701.0	8.348
702.0	8.399
703.0	8.392
704.0	8.404
705.0	8.409
706.0	8.423
707.0	8.444
708.0	8.461
709.0	8.497
710.0	8.526
711.0	8.533
712.0	8.532
713.0	8.528
714.0	8.548
715.0	8.563
716.0	8.568
717.0	8.585
718.0	8.607
719.0	8.642
720.0	8.651
721.0	8.661
722.0	8.673
723.0	8.670
724.0	8.697
725.0	8.689
726.0	8.730
727.0	8.749
728.0	8.787
729.0	8.804
730.0	8.817
731.0	8.831
732.0	8.823
733.0	8.833
734.0	8.844
735.0	8.871
736.0	8.868
737.0	8.882
738.0	8.896
739.0	8.915
740.0	8.936
741.0	8.944
742.0	8.973
743.0	8.956
744.0	8.952
745.0	8.973
746.0	9.018
747.0	9.071
748.0	9.080
749.0	9.071
750.0	9.092
751.0	9.085
752.0	9.134
753.0	9.126
754.0	9.137
755.0	9.140
756.0	9.173
757.0	9.180
758.0	9.205
759.0	9.191
760.0	9.257
761.0	9.253
762.0	9.281
763.0	9.289
764.0	9.328
765.0	9.350
766.0	9.367
767.0	9.387
768.0	9.421
769.0	9.401
770.0	9.399
771.0	9.405
772.0	9.438
773.0	9.419
774.0	9.416
775.0	9.438
776.0	9.480
777.0	9.476
778.0	9.469
779.0	9.484
780.0	9.517
781.0	9.517
782.0	9.535
783.0	9.546
784.0	9.559
785.0	9.534
786.0	9.561
787.0	9.584
788.0	9.627
789.0	9.646
790.0	9.663
791.0	9.671
792.0	9.693
793.0	9.723
794.0	9.751
795.0	9.759
796.0	9.762
797.0	9.768
798.0	9.768
799.0	9.771
800.0	9.798
801.0	9.816
802.0	9.859
803.0	9.895
804.0	9.915
805.0	9.914
806.0	9.910
807.0	9.909
808.0	9.932
809.0	9.950
810.0	9.968
811.0	9.986
812.0	9.981
813.0	9.999
814.0	9.986
815.0	10.000
816.0	10.004
817.0	10.051
818.0	10.066
819.0	10.070
820.0	10.067
821.0	10.072
822.0	10.097
823.0	10.122
824.0	10.134
825.0	10.163
826.0	10.143
827.0	10.179
828.0	10.166
829.0	10.193
830.0	10.187
831.0	10.207
832.0	10.225
833.0	10.260
834.0	10.287
835.0	10.305
836.0	10.284
837.0	10.278
838.0	10.294
839.0	10.318
840.0	10.345
841.0	10.337
842.0	10.337
843.0	10.333
844.0	10.330
845.0	10.362
846.0	10.385
847.0	10.445
848.0	10.477
849.0	10.501
850.0	10.463
851.0	10.432
852.0	10.439
853.0	10.495
854.0	10.506
855.0	10.525
856.0	10.480
857.0	10.510
858.0	10.472
859.0	10.539
860.0	10.526
861.0	10.534
862.0	10.470
863.0	10.530
864.0	10.582
865.0	10.703
866.0	10.680
867.0	10.628
868.0	10.546
869.0	10.561
870.0	10.678
871.0	10.779
872.0	10.796
873.0	10.742
874.0	10.761
875.0	10.759
876.0	10.734
877.0	10.687
878.0	10.850
879.0	10.903
880.0	10.787
881.0	10.701
882.0	10.546
883.0	10.562
884.0	10.586
885.0	10.652
886.0	10.760
887.0	10.636
888.0	10.603
889.0	10.702
890.0	10.649
891.0	10.874
892.0	10.933
893.0	11.029
894.0	10.891
895.0	10.994
896.0	11.002
897.0	10.778
898.0	10.355
899.0	10.421
900.0	10.775
901.0	11.198
902.0	11.190
903.0	11.206
904.0	11.223
905.0	11.352
906.0	11.362
907.0	11.250
908.0	11.227
909.0	11.140
910.0	11.087
911.0	10.978
912.0	11.059
913.0	10.991
914.0	11.090
915.0	11.152
916.0	11.255
917.0	11.215
918.0	11.122
919.0	11.073
920.0	11.106
921.0	11.136
922.0	11.168
923.0	11.161
924.0	11.171
925.0	11.207
926.0	11.206
927.0	11.215
928.0	11.191
929.0	11.159
930.0	11.176
931.0	11.168
932.0	11.220
933.0	11.119
934.0	11.107
935.0	11.114
936.0	11.230
937.0	11.292
938.0	11.206
939.0	11.164
940.0	11.133
941.0	11.141
942.0	11.132
943.0	11.018
944.0	11.011
945.0	11.034
946.0	11.083
947.0	11.143
948.0	11.171
949.0	11.178
950.0	11.173
951.0	11.134
952.0	11.143
953.0	11.141
954.0	11.101
955.0	11.096
956.0	11.081
957.0	11.097
958.0	11.152
959.0	11.181
960.0	11.250
961.0	11.186
962.0	11.160
963.0	11.108
964.0	11.149
965.0	11.154
966.0	11.150
967.0	11.133
968.0	11.145
969.0	11.214
970.0	11.206
971.0	11.144
972.0	11.063
973.0	11.089
974.0	11.144
975.0	11.176
976.0	11.151
977.0	11.122
978.0	11.112
979.0	11.126
980.0	11.126
981.0	11.122
982.0	11.113
983.0	11.151
984.0	11.152
985.0	11.161
986.0	11.138
987.0	11.087
988.0	11.062
989.0	11.074
990.0	11.113
991.0	11.169
992.0	11.148
993.0	11.157
994.0	11.111
995.0	11.118
996.0	11.118
997.0	11.143
998.0	11.146
999.0	11.160
1000.0	11.154
1001.0	11.133
1002.0	11.150
1003.0	11.146
1004.0	11.175
1005.0	11.163
1006.0	11.154
1007.0	11.111
1008.0	11.096
1009.0	11.099
1010.0	11.109
1011.0	11.120
1012.0	11.119
1013.0	11.142
1014.0	11.129
1015.0	11.139
1016.0	11.131
1017.0	11.148
1018.0	11.135
1019.0	11.141
1020.0	11.136
1021.0	11.140
1022.0	11.157
1023.0	11.146
1024.0	11.150
1025.0	11.139
1026.0	11.148
1027.0	11.128
1028.0	11.102
1029.0	11.093
1030.0	11.109
1031.0	11.111
1032.0	11.104
1033.0	11.082
1034.0	11.088
1035.0	11.118
1036.0	11.117
1037.0	11.124
1038.0	11.114
1039.0	11.156
1040.0	11.164
1041.0	11.162
1042.0	11.151
1043.0	11.144
1044.0	11.139
1045.0	11.128
1046.0	11.145
1047.0	11.143
1048.0	11.168
1049.0	11.163
1050.0	11.156
1051.0	11.154
1052.0	11.147
1053.0	11.183
1054.0	11.178
1055.0	11.191
1056.0	11.195
1057.0	11.210
1058.0	11.204
1059.0	11.186
1060.0	11.187
1061.0	11.213
1062.0	11.220
1063.0	11.221
1064.0	11.196
1065.0	11.167
1066.0	11.162
1067.0	11.188
1068.0	11.209
1069.0	11.238
1070.0	11.234
1071.0	11.245
1072.0	11.224
1073.0	11.223
1074.0	11.211
1075.0	11.224
1076.0	11.227
1077.0	11.262
1078.0	11.258
1079.0	11.294
1080.0	11.295
1081.0	11.308
1082.0	11.291
1083.0	11.294
1084.0	11.291
1085.0	11.304
1086.0	11.308
1087.0	11.295
1088.0	11.297
1089.0	11.308
1090.0	11.348
1091.0	11.369
1092.0	11.360
1093.0	11.344
1094.0	11.331
1095.0	11.327
1096.0	11.331
1097.0	11.334
1098.0	11.347
1099.0	11.361
1100.0	11.358
1101.0	11.352
1102.0	11.339
1103.0	11.357
1104.0	11.382
1105.0	11.400
1106.0	11.400
1107.0	11.403
1108.0	11.406
1109.0	11.388
1110.0	11.396
1111.0	11.404
1112.0	11.433
1113.0	11.439
1114.0	11.427
1115.0	11.452
1116.0	11.445
1117.0	11.460
1118.0	11.449
1119.0	11.478
1120.0	11.495
1121.0	11.494
1122.0	11.481
1123.0	11.481
1124.0	11.517
1125.0	11.543
1126.0	11.550
1127.0	11.530
1128.0	11.529
1129.0	11.541
1130.0	11.557
1131.0	11.586
1132.0	11.608
1133.0	11.596
1134.0	11.592
1135.0	11.601
1136.0	11.636
1137.0	11.655
1138.0	11.672
1139.0	11.692
1140.0	11.698
1141.0	11.698
1142.0	11.692
1143.0	11.678
1144.0	11.681
1145.0	11.697
1146.0	11.736
1147.0	11.760
1148.0	11.754
1149.0	11.757
1150.0	11.764
1151.0	11.791
1152.0	11.808
1153.0	11.823
1154.0	11.827
1155.0	11.831
1156.0	11.837
1157.0	11.847
1158.0	11.852
1159.0	11.859
1160.0	11.874
1161.0	11.882
1162.0	11.896
1163.0	11.912
1164.0	11.928
1165.0	11.942
1166.0	11.954
1167.0	11.971
1168.0	11.968
1169.0	11.971
1170.0	11.974
1171.0	11.990
1172.0	12.015
1173.0	12.041
1174.0	12.068
1175.0	12.074
1176.0	12.054
1177.0	12.056
1178.0	12.059
1179.0	12.092
1180.0	12.105
1181.0	12.117
1182.0	12.113
1183.0	12.101
1184.0	12.101
1185.0	12.133
1186.0	12.162
1187.0	12.200
1188.0	12.210
1189.0	12.232
1190.0	12.241
1191.0	12.247
1192.0	12.237
1193.0	12.249
1194.0	12.264
1195.0	12.283
1196.0	12.299
1197.0	12.319
1198.0	12.345
1199.0	12.342
1200.0	12.355
1201.0	12.360
1202.0	12.376
1203.0	12.377
1204.0	12.397
1205.0	12.411
1206.0	12.439
1207.0	12.449
1208.0	12.465
1209.0	12.467
1210.0	12.490
1211.0	12.503
1212.0	12.524
1213.0	12.535
1214.0	12.560
1215.0	12.555
1216.0	12.546
1217.0	12.551
1218.0	12.599
1219.0	12.618
1220.0	12.633
1221.0	12.625
1222.0	12.637
1223.0	12.658
1224.0	12.672
1225.0	12.694
1226.0	12.702
1227.0	12.703
1228.0	12.719
1229.0	12.727
1230.0	12.750
1231.0	12.767
1232.0	12.788
1233.0	12.821
1234.0	12.847
1235.0	12.860
1236.0	12.885
1237.0	12.889
1238.0	12.907
1239.0	12.915
1240.0	12.933
1241.0	12.941
1242.0	12.926
1243.0	12.950
1244.0	12.961
1245.0	12.991
1246.0	12.977
1247.0	12.998
1248.0	13.011
1249.0	13.048
1250.0	13.064
1251.0	13.083
1252.0	13.076
1253.0	13.097
1254.0	13.092
1255.0	13.125
1256.0	13.121
1257.0	13.159
1258.0	13.166
1259.0	13.193
1260.0	13.202
1261.0	13.218
1262.0	13.243
1263.0	13.248
1264.0	13.261
1265.0	13.262
1266.0	13.282
1267.0	13.287
1268.0	13.293
1269.0	13.315
1270.0	13.349
1271.0	13.352
1272.0	13.330
1273.0	13.332
1274.0	13.369
1275.0	13.413
1276.0	13.421
1277.0	13.423
1278.0	13.422
1279.0	13.454
1280.0	13.480
1281.0	13.507
1282.0	13.512
1283.0	13.505
1284.0	13.517
1285.0	13.525
1286.0	13.548
1287.0	13.567
1288.0	13.577
1289.0	13.589
1290.0	13.599
1291.0	13.624
1292.0	13.645
1293.0	13.676
1294.0	13.689
1295.0	13.702
1296.0	13.694
1297.0	13.694
1298.0	13.708
1299.0	13.728
1300.0	13.761
1301.0	13.770
1302.0	13.792
1303.0	13.816
1304.0	13.841
1305.0	13.864
1306.0	13.887
1307.0	13.923
1308.0	13.948
1309.0	13.954
1310.0	13.940
1311.0	13.956
1312.0	13.973
1313.0	14.019
1314.0	14.037
1315.0	14.055
1316.0	14.067
1317.0	14.072
1318.0	14.084
1319.0	14.085
1320.0	14.112
1321.0	14.123
1322.0	14.162
1323.0	14.145
1324.0	14.177
1325.0	14.191
1326.0	14.241
1327.0	14.250
1328.0	14.273
1329.0	14.284
1330.0	14.298
1331.0	14.278
1332.0	14.303
1333.0	14.326
1334.0	14.354
1335.0	14.387
1336.0	14.383
1337.0	14.413
1338.0	14.404
1339.0	14.446
1340.0	14.456
1341.0	14.471
1342.0	14.485
1343.0	14.500
1344.0	14.525
1345.0	14.539
1346.0	14.547
1347.0	14.544
1348.0	14.569
1349.0	14.595
1350.0	14.626
1351.0	14.627
1352.0	14.662
1353.0	14.672
1354.0	14.693
1355.0	14.676
1356.0	14.673
1357.0	14.644
1358.0	14.662
1359.0	14.705
1360.0	14.750
1361.0	14.775
1362.0	14.781
1363.0	14.804
1364.0	14.835
1365.0	14.852
1366.0	14.892
1367.0	14.904
1368.0	14.935
1369.0	14.942
1370.0	14.958
1371.0	14.960
1372.0	14.962
1373.0	14.978
1374.0	14.999
1375.0	15.025
1376.0	15.060
1377.0	15.091
1378.0	15.115
1379.0	15.119
1380.0	15.127
1381.0	15.181
1382.0	15.193
1383.0	15.243
1384.0	15.225
1385.0	15.264
1386.0	15.283
1387.0	15.341
1388.0	15.363
1389.0	15.390
1390.0	15.384
1391.0	15.441
1392.0	15.481
1393.0	15.511
1394.0	15.527
1395.0	15.532
1396.0	15.575
1397.0	15.597
1398.0	15.619
1399.0	15.659
1400.0	15.686
