[SUMMARY]
Software Information
Software Name:	UVProbe
Version:	2.43
Mode:	Normal Mode

Data Information
Data is:	Original
Analyst:	
Date/Time:	16/02/2023 14:55:36
Comments:	

Instrument Information
Instrument Name:	SolidSpec3700
Instrument Type:	SolidSpec-3700 Series
Model (S/N):	SolidSpec3700 ( A11085100264CZ )

[METHOD]
[Measurement Properties]
Wavelength Range (nm.):	300,00 to 1400,00
Scan Speed:	Medium
Sampling Interval:	1,0
Auto Sampling Interval:	Disabled
Scan Mode:	Single

[Sample Preparation Properties]
Weight:	
Volume:	
Dilution:	
Path Length:	
Additional Information:	

[Instrument Properties]
Instrument Type:	SolidSpec-3700 Series
Measuring Mode:	Reflectance
Slit Width:	5,0 nm
Time Constant:	1,0 sec.
Source Lamp:	Auto
Light Source Change Wavelength:	285,00 nm
Detector Unit:	Integral Sphere
Detector Change Wavelength:	900,00 nm  1650,00 nm
Grating Change Wavelength:	800,00 nm
S/R Exchange:	Inverse
Detector Lock:	Auto
Slit Program:	Fixed
Beam Mode:	Double
Stair Correction:	Disable

[Attachment Properties]
Attachment:	X-Y Stage
Sequence File:	Positions.xys

[Operation]
Threshold:	0,0010000
Points:	4
InterPolate:	Disabled
Average:	Disabled

[DATA]
Wavelength	Data
300.0	5.638
301.0	5.648
302.0	5.644
303.0	5.679
304.0	5.707
305.0	5.682
306.0	5.651
307.0	5.614
308.0	5.668
309.0	5.631
310.0	5.640
311.0	5.600
312.0	5.588
313.0	5.545
314.0	5.525
315.0	5.518
316.0	5.484
317.0	5.454
318.0	5.416
319.0	5.379
320.0	5.359
321.0	5.327
322.0	5.308
323.0	5.254
324.0	5.245
325.0	5.221
326.0	5.212
327.0	5.165
328.0	5.155
329.0	5.126
330.0	5.102
331.0	5.041
332.0	5.036
333.0	5.046
334.0	5.052
335.0	5.037
336.0	5.000
337.0	4.985
338.0	4.949
339.0	4.962
340.0	4.956
341.0	4.968
342.0	4.971
343.0	4.983
344.0	4.960
345.0	4.936
346.0	4.937
347.0	4.966
348.0	4.973
349.0	4.978
350.0	5.006
351.0	5.020
352.0	5.033
353.0	5.028
354.0	5.062
355.0	5.083
356.0	5.101
357.0	5.114
358.0	5.128
359.0	5.142
360.0	5.135
361.0	5.146
362.0	5.139
363.0	5.146
364.0	5.143
365.0	5.159
366.0	5.161
367.0	5.159
368.0	5.124
369.0	5.109
370.0	5.077
371.0	5.097
372.0	5.076
373.0	5.064
374.0	5.018
375.0	4.999
376.0	4.975
377.0	4.940
378.0	4.899
379.0	4.867
380.0	4.843
381.0	4.817
382.0	4.775
383.0	4.740
384.0	4.709
385.0	4.691
386.0	4.663
387.0	4.624
388.0	4.589
389.0	4.561
390.0	4.533
391.0	4.500
392.0	4.480
393.0	4.466
394.0	4.439
395.0	4.406
396.0	4.366
397.0	4.352
398.0	4.332
399.0	4.330
400.0	4.319
401.0	4.299
402.0	4.274
403.0	4.255
404.0	4.255
405.0	4.251
406.0	4.239
407.0	4.233
408.0	4.228
409.0	4.231
410.0	4.232
411.0	4.245
412.0	4.266
413.0	4.286
414.0	4.303
415.0	4.312
416.0	4.333
417.0	4.363
418.0	4.403
419.0	4.439
420.0	4.473
421.0	4.507
422.0	4.542
423.0	4.582
424.0	4.631
425.0	4.680
426.0	4.730
427.0	4.773
428.0	4.829
429.0	4.892
430.0	4.957
431.0	5.014
432.0	5.073
433.0	5.136
434.0	5.199
435.0	5.253
436.0	5.309
437.0	5.365
438.0	5.441
439.0	5.507
440.0	5.573
441.0	5.634
442.0	5.690
443.0	5.755
444.0	5.820
445.0	5.886
446.0	5.950
447.0	6.007
448.0	6.073
449.0	6.126
450.0	6.186
451.0	6.241
452.0	6.312
453.0	6.370
454.0	6.440
455.0	6.492
456.0	6.551
457.0	6.602
458.0	6.663
459.0	6.712
460.0	6.765
461.0	6.808
462.0	6.863
463.0	6.904
464.0	6.953
465.0	6.997
466.0	7.050
467.0	7.092
468.0	7.133
469.0	7.175
470.0	7.217
471.0	7.259
472.0	7.292
473.0	7.330
474.0	7.362
475.0	7.400
476.0	7.449
477.0	7.489
478.0	7.533
479.0	7.558
480.0	7.594
481.0	7.615
482.0	7.646
483.0	7.675
484.0	7.711
485.0	7.742
486.0	7.765
487.0	7.788
488.0	7.811
489.0	7.841
490.0	7.872
491.0	7.897
492.0	7.925
493.0	7.938
494.0	7.965
495.0	7.986
496.0	8.004
497.0	8.017
498.0	8.029
499.0	8.041
500.0	8.049
501.0	8.072
502.0	8.093
503.0	8.126
504.0	8.138
505.0	8.150
506.0	8.151
507.0	8.152
508.0	8.161
509.0	8.173
510.0	8.174
511.0	8.181
512.0	8.168
513.0	8.180
514.0	8.181
515.0	8.186
516.0	8.174
517.0	8.168
518.0	8.173
519.0	8.171
520.0	8.162
521.0	8.155
522.0	8.151
523.0	8.142
524.0	8.120
525.0	8.094
526.0	8.078
527.0	8.054
528.0	8.037
529.0	8.011
530.0	8.000
531.0	7.987
532.0	7.973
533.0	7.954
534.0	7.926
535.0	7.901
536.0	7.871
537.0	7.843
538.0	7.815
539.0	7.782
540.0	7.755
541.0	7.731
542.0	7.699
543.0	7.669
544.0	7.628
545.0	7.594
546.0	7.570
547.0	7.536
548.0	7.506
549.0	7.469
550.0	7.448
551.0	7.430
552.0	7.404
553.0	7.366
554.0	7.328
555.0	7.287
556.0	7.255
557.0	7.223
558.0	7.196
559.0	7.174
560.0	7.140
561.0	7.108
562.0	7.078
563.0	7.055
564.0	7.029
565.0	7.006
566.0	6.977
567.0	6.953
568.0	6.915
569.0	6.894
570.0	6.863
571.0	6.838
572.0	6.808
573.0	6.793
574.0	6.765
575.0	6.738
576.0	6.709
577.0	6.688
578.0	6.674
579.0	6.656
580.0	6.645
581.0	6.620
582.0	6.593
583.0	6.575
584.0	6.564
585.0	6.559
586.0	6.542
587.0	6.522
588.0	6.507
589.0	6.493
590.0	6.490
591.0	6.476
592.0	6.466
593.0	6.449
594.0	6.441
595.0	6.441
596.0	6.437
597.0	6.430
598.0	6.414
599.0	6.406
600.0	6.404
601.0	6.397
602.0	6.394
603.0	6.379
604.0	6.374
605.0	6.368
606.0	6.374
607.0	6.366
608.0	6.362
609.0	6.362
610.0	6.363
611.0	6.349
612.0	6.343
613.0	6.344
614.0	6.349
615.0	6.337
616.0	6.332
617.0	6.329
618.0	6.339
619.0	6.344
620.0	6.344
621.0	6.332
622.0	6.332
623.0	6.346
624.0	6.363
625.0	6.371
626.0	6.365
627.0	6.363
628.0	6.361
629.0	6.367
630.0	6.369
631.0	6.377
632.0	6.392
633.0	6.402
634.0	6.406
635.0	6.406
636.0	6.408
637.0	6.413
638.0	6.430
639.0	6.431
640.0	6.438
641.0	6.434
642.0	6.455
643.0	6.477
644.0	6.482
645.0	6.490
646.0	6.486
647.0	6.511
648.0	6.512
649.0	6.525
650.0	6.536
651.0	6.559
652.0	6.563
653.0	6.553
654.0	6.567
655.0	6.583
656.0	6.603
657.0	6.614
658.0	6.626
659.0	6.638
660.0	6.635
661.0	6.655
662.0	6.670
663.0	6.684
664.0	6.688
665.0	6.704
666.0	6.713
667.0	6.727
668.0	6.740
669.0	6.760
670.0	6.783
671.0	6.805
672.0	6.832
673.0	6.856
674.0	6.866
675.0	6.883
676.0	6.892
677.0	6.909
678.0	6.942
679.0	6.960
680.0	6.998
681.0	7.005
682.0	7.027
683.0	7.021
684.0	7.036
685.0	7.053
686.0	7.064
687.0	7.058
688.0	7.073
689.0	7.108
690.0	7.157
691.0	7.181
692.0	7.193
693.0	7.208
694.0	7.253
695.0	7.270
696.0	7.275
697.0	7.268
698.0	7.294
699.0	7.318
700.0	7.328
701.0	7.345
702.0	7.363
703.0	7.389
704.0	7.408
705.0	7.437
706.0	7.453
707.0	7.481
708.0	7.508
709.0	7.546
710.0	7.591
711.0	7.604
712.0	7.623
713.0	7.622
714.0	7.645
715.0	7.669
716.0	7.695
717.0	7.721
718.0	7.730
719.0	7.743
720.0	7.762
721.0	7.803
722.0	7.828
723.0	7.851
724.0	7.852
725.0	7.897
726.0	7.913
727.0	7.943
728.0	7.939
729.0	7.972
730.0	8.011
731.0	8.048
732.0	8.059
733.0	8.068
734.0	8.111
735.0	8.132
736.0	8.136
737.0	8.127
738.0	8.161
739.0	8.210
740.0	8.225
741.0	8.276
742.0	8.298
743.0	8.345
744.0	8.332
745.0	8.361
746.0	8.355
747.0	8.403
748.0	8.401
749.0	8.450
750.0	8.443
751.0	8.485
752.0	8.507
753.0	8.552
754.0	8.562
755.0	8.569
756.0	8.578
757.0	8.610
758.0	8.636
759.0	8.658
760.0	8.672
761.0	8.695
762.0	8.728
763.0	8.758
764.0	8.779
765.0	8.813
766.0	8.812
767.0	8.837
768.0	8.838
769.0	8.898
770.0	8.929
771.0	8.961
772.0	8.965
773.0	8.972
774.0	8.976
775.0	9.009
776.0	9.048
777.0	9.101
778.0	9.134
779.0	9.152
780.0	9.152
781.0	9.174
782.0	9.202
783.0	9.217
784.0	9.218
785.0	9.238
786.0	9.285
787.0	9.293
788.0	9.321
789.0	9.333
790.0	9.358
791.0	9.372
792.0	9.390
793.0	9.431
794.0	9.447
795.0	9.480
796.0	9.530
797.0	9.572
798.0	9.592
799.0	9.579
800.0	9.608
801.0	9.628
802.0	9.673
803.0	9.673
804.0	9.700
805.0	9.708
806.0	9.740
807.0	9.736
808.0	9.741
809.0	9.740
810.0	9.770
811.0	9.814
812.0	9.861
813.0	9.896
814.0	9.914
815.0	9.915
816.0	9.927
817.0	9.935
818.0	9.957
819.0	9.976
820.0	9.994
821.0	10.003
822.0	10.030
823.0	10.054
824.0	10.083
825.0	10.099
826.0	10.134
827.0	10.141
828.0	10.161
829.0	10.176
830.0	10.210
831.0	10.205
832.0	10.224
833.0	10.221
834.0	10.240
835.0	10.230
836.0	10.255
837.0	10.290
838.0	10.320
839.0	10.342
840.0	10.374
841.0	10.415
842.0	10.402
843.0	10.415
844.0	10.404
845.0	10.470
846.0	10.463
847.0	10.475
848.0	10.446
849.0	10.418
850.0	10.405
851.0	10.421
852.0	10.445
853.0	10.456
854.0	10.471
855.0	10.498
856.0	10.567
857.0	10.566
858.0	10.567
859.0	10.525
860.0	10.593
861.0	10.636
862.0	10.648
863.0	10.577
864.0	10.569
865.0	10.579
866.0	10.534
867.0	10.593
868.0	10.603
869.0	10.609
870.0	10.540
871.0	10.497
872.0	10.612
873.0	10.628
874.0	10.661
875.0	10.725
876.0	10.905
877.0	11.100
878.0	10.991
879.0	10.852
880.0	10.797
881.0	10.694
882.0	10.666
883.0	10.631
884.0	10.951
885.0	11.042
886.0	10.934
887.0	10.793
888.0	10.807
889.0	10.884
890.0	10.872
891.0	10.770
892.0	10.588
893.0	10.767
894.0	10.899
895.0	11.271
896.0	11.275
897.0	11.124
898.0	10.859
899.0	10.612
900.0	11.042
901.0	11.281
902.0	11.522
903.0	11.356
904.0	11.361
905.0	11.564
906.0	11.623
907.0	11.734
908.0	11.603
909.0	11.516
910.0	11.337
911.0	11.362
912.0	11.400
913.0	11.509
914.0	11.480
915.0	11.442
916.0	11.462
917.0	11.501
918.0	11.559
919.0	11.592
920.0	11.567
921.0	11.583
922.0	11.610
923.0	11.615
924.0	11.620
925.0	11.566
926.0	11.565
927.0	11.631
928.0	11.677
929.0	11.704
930.0	11.698
931.0	11.701
932.0	11.722
933.0	11.688
934.0	11.772
935.0	11.764
936.0	11.776
937.0	11.778
938.0	11.827
939.0	11.893
940.0	11.814
941.0	11.795
942.0	11.819
943.0	11.817
944.0	11.743
945.0	11.653
946.0	11.673
947.0	11.780
948.0	11.796
949.0	11.843
950.0	11.837
951.0	11.838
952.0	11.823
953.0	11.813
954.0	11.810
955.0	11.759
956.0	11.757
957.0	11.812
958.0	11.823
959.0	11.812
960.0	11.858
961.0	11.895
962.0	11.940
963.0	11.894
964.0	11.912
965.0	11.918
966.0	11.923
967.0	11.933
968.0	11.932
969.0	11.932
970.0	11.922
971.0	11.884
972.0	11.855
973.0	11.884
974.0	11.904
975.0	11.920
976.0	11.903
977.0	11.922
978.0	11.942
979.0	11.907
980.0	11.914
981.0	11.917
982.0	11.951
983.0	11.925
984.0	11.940
985.0	11.986
986.0	11.983
987.0	11.985
988.0	11.944
989.0	11.967
990.0	11.962
991.0	11.993
992.0	12.022
993.0	12.039
994.0	12.011
995.0	11.989
996.0	11.992
997.0	12.007
998.0	11.985
999.0	11.969
1000.0	11.977
1001.0	12.019
1002.0	12.014
1003.0	12.010
1004.0	12.000
1005.0	12.014
1006.0	12.002
1007.0	11.985
1008.0	11.964
1009.0	11.994
1010.0	12.017
1011.0	12.034
1012.0	12.019
1013.0	12.019
1014.0	12.021
1015.0	12.017
1016.0	11.992
1017.0	12.002
1018.0	11.998
1019.0	12.023
1020.0	12.035
1021.0	12.016
1022.0	12.021
1023.0	12.005
1024.0	12.033
1025.0	12.033
1026.0	12.037
1027.0	12.013
1028.0	12.008
1029.0	11.997
1030.0	12.018
1031.0	11.984
1032.0	11.973
1033.0	11.964
1034.0	12.009
1035.0	12.009
1036.0	12.018
1037.0	12.004
1038.0	12.022
1039.0	12.036
1040.0	12.046
1041.0	12.040
1042.0	12.033
1043.0	12.021
1044.0	12.042
1045.0	12.034
1046.0	12.062
1047.0	12.042
1048.0	12.045
1049.0	12.029
1050.0	12.030
1051.0	12.007
1052.0	12.007
1053.0	12.023
1054.0	12.048
1055.0	12.041
1056.0	12.029
1057.0	12.038
1058.0	12.039
1059.0	12.046
1060.0	12.042
1061.0	12.053
1062.0	12.048
1063.0	12.048
1064.0	12.053
1065.0	12.069
1066.0	12.072
1067.0	12.065
1068.0	12.051
1069.0	12.060
1070.0	12.073
1071.0	12.077
1072.0	12.069
1073.0	12.051
1074.0	12.048
1075.0	12.055
1076.0	12.052
1077.0	12.060
1078.0	12.040
1079.0	12.060
1080.0	12.074
1081.0	12.095
1082.0	12.090
1083.0	12.092
1084.0	12.093
1085.0	12.097
1086.0	12.088
1087.0	12.090
1088.0	12.092
1089.0	12.084
1090.0	12.071
1091.0	12.062
1092.0	12.075
1093.0	12.092
1094.0	12.099
1095.0	12.101
1096.0	12.108
1097.0	12.122
1098.0	12.115
1099.0	12.107
1100.0	12.098
1101.0	12.108
1102.0	12.111
1103.0	12.121
1104.0	12.128
1105.0	12.111
1106.0	12.110
1107.0	12.107
1108.0	12.114
1109.0	12.135
1110.0	12.146
1111.0	12.163
1112.0	12.144
1113.0	12.126
1114.0	12.130
1115.0	12.137
1116.0	12.145
1117.0	12.136
1118.0	12.140
1119.0	12.152
1120.0	12.176
1121.0	12.192
1122.0	12.199
1123.0	12.179
1124.0	12.181
1125.0	12.190
1126.0	12.217
1127.0	12.202
1128.0	12.199
1129.0	12.195
1130.0	12.224
1131.0	12.206
1132.0	12.233
1133.0	12.225
1134.0	12.245
1135.0	12.238
1136.0	12.249
1137.0	12.265
1138.0	12.283
1139.0	12.285
1140.0	12.306
1141.0	12.298
1142.0	12.304
1143.0	12.291
1144.0	12.304
1145.0	12.331
1146.0	12.325
1147.0	12.321
1148.0	12.311
1149.0	12.351
1150.0	12.384
1151.0	12.393
1152.0	12.388
1153.0	12.364
1154.0	12.377
1155.0	12.380
1156.0	12.419
1157.0	12.433
1158.0	12.465
1159.0	12.476
1160.0	12.479
1161.0	12.493
1162.0	12.497
1163.0	12.519
1164.0	12.512
1165.0	12.514
1166.0	12.516
1167.0	12.536
1168.0	12.540
1169.0	12.559
1170.0	12.554
1171.0	12.552
1172.0	12.559
1173.0	12.583
1174.0	12.624
1175.0	12.631
1176.0	12.648
1177.0	12.644
1178.0	12.656
1179.0	12.650
1180.0	12.669
1181.0	12.699
1182.0	12.716
1183.0	12.727
1184.0	12.720
1185.0	12.735
1186.0	12.744
1187.0	12.755
1188.0	12.768
1189.0	12.785
1190.0	12.797
1191.0	12.799
1192.0	12.809
1193.0	12.814
1194.0	12.843
1195.0	12.867
1196.0	12.878
1197.0	12.880
1198.0	12.881
1199.0	12.892
1200.0	12.907
1201.0	12.919
1202.0	12.947
1203.0	12.956
1204.0	12.982
1205.0	12.985
1206.0	12.997
1207.0	12.996
1208.0	13.012
1209.0	13.030
1210.0	13.072
1211.0	13.080
1212.0	13.098
1213.0	13.089
1214.0	13.131
1215.0	13.150
1216.0	13.164
1217.0	13.159
1218.0	13.152
1219.0	13.165
1220.0	13.189
1221.0	13.224
1222.0	13.247
1223.0	13.269
1224.0	13.294
1225.0	13.309
1226.0	13.316
1227.0	13.338
1228.0	13.359
1229.0	13.373
1230.0	13.381
1231.0	13.394
1232.0	13.416
1233.0	13.433
1234.0	13.462
1235.0	13.476
1236.0	13.508
1237.0	13.527
1238.0	13.542
1239.0	13.529
1240.0	13.538
1241.0	13.557
1242.0	13.579
1243.0	13.596
1244.0	13.599
1245.0	13.621
1246.0	13.628
1247.0	13.660
1248.0	13.679
1249.0	13.702
1250.0	13.721
1251.0	13.745
1252.0	13.758
1253.0	13.764
1254.0	13.779
1255.0	13.804
1256.0	13.842
1257.0	13.853
1258.0	13.858
1259.0	13.855
1260.0	13.873
1261.0	13.909
1262.0	13.913
1263.0	13.919
1264.0	13.936
1265.0	13.982
1266.0	14.029
1267.0	14.055
1268.0	14.060
1269.0	14.044
1270.0	14.057
1271.0	14.076
1272.0	14.125
1273.0	14.116
1274.0	14.135
1275.0	14.145
1276.0	14.184
1277.0	14.208
1278.0	14.218
1279.0	14.244
1280.0	14.256
1281.0	14.282
1282.0	14.285
1283.0	14.289
1284.0	14.311
1285.0	14.310
1286.0	14.338
1287.0	14.357
1288.0	14.383
1289.0	14.391
1290.0	14.411
1291.0	14.434
1292.0	14.472
1293.0	14.481
1294.0	14.506
1295.0	14.507
1296.0	14.519
1297.0	14.546
1298.0	14.573
1299.0	14.589
1300.0	14.605
1301.0	14.631
1302.0	14.669
1303.0	14.675
1304.0	14.686
1305.0	14.704
1306.0	14.737
1307.0	14.774
1308.0	14.793
1309.0	14.827
1310.0	14.844
1311.0	14.881
1312.0	14.892
1313.0	14.918
1314.0	14.919
1315.0	14.950
1316.0	14.955
1317.0	14.970
1318.0	14.976
1319.0	15.015
1320.0	15.021
1321.0	15.029
1322.0	15.035
1323.0	15.069
1324.0	15.114
1325.0	15.163
1326.0	15.183
1327.0	15.186
1328.0	15.197
1329.0	15.219
1330.0	15.238
1331.0	15.259
1332.0	15.271
1333.0	15.319
1334.0	15.326
1335.0	15.372
1336.0	15.386
1337.0	15.392
1338.0	15.442
1339.0	15.450
1340.0	15.514
1341.0	15.499
1342.0	15.541
1343.0	15.531
1344.0	15.566
1345.0	15.567
1346.0	15.599
1347.0	15.617
1348.0	15.620
1349.0	15.611
1350.0	15.627
1351.0	15.664
1352.0	15.704
1353.0	15.694
1354.0	15.723
1355.0	15.743
1356.0	15.791
1357.0	15.805
1358.0	15.825
1359.0	15.813
1360.0	15.837
1361.0	15.834
1362.0	15.854
1363.0	15.849
1364.0	15.907
1365.0	15.936
1366.0	15.983
1367.0	15.974
1368.0	15.991
1369.0	15.993
1370.0	16.001
1371.0	16.046
1372.0	16.076
1373.0	16.137
1374.0	16.147
1375.0	16.169
1376.0	16.201
1377.0	16.261
1378.0	16.289
1379.0	16.316
1380.0	16.340
1381.0	16.381
1382.0	16.409
1383.0	16.452
1384.0	16.451
1385.0	16.479
1386.0	16.472
1387.0	16.533
1388.0	16.553
1389.0	16.582
1390.0	16.607
1391.0	16.614
1392.0	16.645
1393.0	16.661
1394.0	16.694
1395.0	16.753
1396.0	16.809
1397.0	16.836
1398.0	16.866
1399.0	16.903
1400.0	16.966
