[SUMMARY]
Software Information
Software Name:	UVProbe
Version:	2.43
Mode:	Normal Mode

Data Information
Data is:	Original
Analyst:	
Date/Time:	10/02/2023 19:34:54
Comments:	

Instrument Information
Instrument Name:	SolidSpec3700
Instrument Type:	SolidSpec-3700 Series
Model (S/N):	SolidSpec3700 ( A11085100264CZ )

[METHOD]
[Measurement Properties]
Wavelength Range (nm.):	300,00 to 1400,00
Scan Speed:	Medium
Sampling Interval:	1,0
Auto Sampling Interval:	Disabled
Scan Mode:	Single

[Sample Preparation Properties]
Weight:	
Volume:	
Dilution:	
Path Length:	
Additional Information:	

[Instrument Properties]
Instrument Type:	SolidSpec-3700 Series
Measuring Mode:	Reflectance
Slit Width:	5,0 nm
Time Constant:	1,0 sec.
Source Lamp:	Auto
Light Source Change Wavelength:	285,00 nm
Detector Unit:	Integral Sphere
Detector Change Wavelength:	900,00 nm  1650,00 nm
Grating Change Wavelength:	800,00 nm
S/R Exchange:	Inverse
Detector Lock:	Auto
Slit Program:	Fixed
Beam Mode:	Double
Stair Correction:	Disable

[Attachment Properties]
Attachment:	X-Y Stage
Sequence File:	Positions.xys

[Operation]
Threshold:	0,0010000
Points:	4
InterPolate:	Disabled
Average:	Disabled

[DATA]
Wavelength	Data
300.0	5.619
301.0	5.616
302.0	5.612
303.0	5.607
304.0	5.618
305.0	5.593
306.0	5.562
307.0	5.525
308.0	5.522
309.0	5.548
310.0	5.540
311.0	5.517
312.0	5.417
313.0	5.382
314.0	5.344
315.0	5.368
316.0	5.323
317.0	5.262
318.0	5.197
319.0	5.118
320.0	5.073
321.0	5.042
322.0	5.035
323.0	5.020
324.0	4.982
325.0	4.958
326.0	4.906
327.0	4.893
328.0	4.845
329.0	4.792
330.0	4.727
331.0	4.682
332.0	4.682
333.0	4.658
334.0	4.644
335.0	4.591
336.0	4.580
337.0	4.551
338.0	4.540
339.0	4.507
340.0	4.469
341.0	4.441
342.0	4.424
343.0	4.424
344.0	4.413
345.0	4.377
346.0	4.341
347.0	4.328
348.0	4.329
349.0	4.331
350.0	4.331
351.0	4.358
352.0	4.363
353.0	4.367
354.0	4.357
355.0	4.363
356.0	4.391
357.0	4.400
358.0	4.422
359.0	4.413
360.0	4.415
361.0	4.408
362.0	4.418
363.0	4.434
364.0	4.461
365.0	4.483
366.0	4.524
367.0	4.559
368.0	4.591
369.0	4.617
370.0	4.644
371.0	4.674
372.0	4.723
373.0	4.779
374.0	4.833
375.0	4.858
376.0	4.888
377.0	4.929
378.0	4.984
379.0	5.036
380.0	5.094
381.0	5.140
382.0	5.194
383.0	5.245
384.0	5.292
385.0	5.333
386.0	5.368
387.0	5.417
388.0	5.447
389.0	5.490
390.0	5.524
391.0	5.566
392.0	5.601
393.0	5.632
394.0	5.677
395.0	5.701
396.0	5.722
397.0	5.747
398.0	5.782
399.0	5.813
400.0	5.825
401.0	5.832
402.0	5.853
403.0	5.878
404.0	5.912
405.0	5.924
406.0	5.934
407.0	5.943
408.0	5.960
409.0	5.977
410.0	5.997
411.0	6.014
412.0	6.029
413.0	6.046
414.0	6.064
415.0	6.079
416.0	6.079
417.0	6.087
418.0	6.095
419.0	6.115
420.0	6.126
421.0	6.121
422.0	6.113
423.0	6.101
424.0	6.100
425.0	6.098
426.0	6.095
427.0	6.082
428.0	6.067
429.0	6.060
430.0	6.049
431.0	6.027
432.0	6.010
433.0	6.014
434.0	6.027
435.0	6.017
436.0	6.002
437.0	5.987
438.0	5.986
439.0	5.997
440.0	6.002
441.0	6.004
442.0	6.003
443.0	5.996
444.0	6.012
445.0	6.018
446.0	6.047
447.0	6.067
448.0	6.095
449.0	6.109
450.0	6.123
451.0	6.139
452.0	6.162
453.0	6.188
454.0	6.205
455.0	6.222
456.0	6.248
457.0	6.275
458.0	6.303
459.0	6.326
460.0	6.356
461.0	6.387
462.0	6.404
463.0	6.428
464.0	6.449
465.0	6.467
466.0	6.489
467.0	6.511
468.0	6.544
469.0	6.563
470.0	6.588
471.0	6.610
472.0	6.640
473.0	6.659
474.0	6.686
475.0	6.712
476.0	6.750
477.0	6.770
478.0	6.797
479.0	6.808
480.0	6.829
481.0	6.843
482.0	6.863
483.0	6.882
484.0	6.896
485.0	6.914
486.0	6.932
487.0	6.945
488.0	6.959
489.0	6.963
490.0	6.988
491.0	7.008
492.0	7.029
493.0	7.037
494.0	7.043
495.0	7.057
496.0	7.058
497.0	7.066
498.0	7.069
499.0	7.076
500.0	7.074
501.0	7.075
502.0	7.077
503.0	7.079
504.0	7.088
505.0	7.094
506.0	7.092
507.0	7.084
508.0	7.070
509.0	7.064
510.0	7.054
511.0	7.045
512.0	7.037
513.0	7.032
514.0	7.031
515.0	7.021
516.0	6.998
517.0	6.993
518.0	6.974
519.0	6.967
520.0	6.943
521.0	6.928
522.0	6.912
523.0	6.894
524.0	6.883
525.0	6.857
526.0	6.830
527.0	6.809
528.0	6.796
529.0	6.788
530.0	6.758
531.0	6.729
532.0	6.693
533.0	6.675
534.0	6.649
535.0	6.637
536.0	6.620
537.0	6.610
538.0	6.576
539.0	6.556
540.0	6.530
541.0	6.511
542.0	6.485
543.0	6.468
544.0	6.453
545.0	6.437
546.0	6.414
547.0	6.395
548.0	6.383
549.0	6.375
550.0	6.368
551.0	6.355
552.0	6.334
553.0	6.311
554.0	6.301
555.0	6.296
556.0	6.287
557.0	6.275
558.0	6.257
559.0	6.247
560.0	6.232
561.0	6.228
562.0	6.228
563.0	6.221
564.0	6.225
565.0	6.216
566.0	6.218
567.0	6.201
568.0	6.190
569.0	6.180
570.0	6.183
571.0	6.193
572.0	6.190
573.0	6.186
574.0	6.179
575.0	6.180
576.0	6.174
577.0	6.187
578.0	6.193
579.0	6.205
580.0	6.199
581.0	6.205
582.0	6.212
583.0	6.219
584.0	6.226
585.0	6.240
586.0	6.249
587.0	6.262
588.0	6.266
589.0	6.279
590.0	6.277
591.0	6.288
592.0	6.297
593.0	6.326
594.0	6.333
595.0	6.349
596.0	6.358
597.0	6.377
598.0	6.392
599.0	6.419
600.0	6.432
601.0	6.452
602.0	6.460
603.0	6.480
604.0	6.496
605.0	6.511
606.0	6.530
607.0	6.548
608.0	6.572
609.0	6.600
610.0	6.625
611.0	6.647
612.0	6.657
613.0	6.677
614.0	6.701
615.0	6.721
616.0	6.743
617.0	6.755
618.0	6.779
619.0	6.808
620.0	6.838
621.0	6.857
622.0	6.873
623.0	6.897
624.0	6.926
625.0	6.955
626.0	6.981
627.0	7.015
628.0	7.034
629.0	7.062
630.0	7.082
631.0	7.108
632.0	7.127
633.0	7.161
634.0	7.198
635.0	7.241
636.0	7.270
637.0	7.288
638.0	7.302
639.0	7.322
640.0	7.344
641.0	7.372
642.0	7.392
643.0	7.428
644.0	7.442
645.0	7.480
646.0	7.501
647.0	7.543
648.0	7.565
649.0	7.597
650.0	7.619
651.0	7.652
652.0	7.681
653.0	7.719
654.0	7.737
655.0	7.759
656.0	7.777
657.0	7.812
658.0	7.837
659.0	7.863
660.0	7.869
661.0	7.881
662.0	7.909
663.0	7.953
664.0	8.000
665.0	8.029
666.0	8.053
667.0	8.073
668.0	8.105
669.0	8.142
670.0	8.183
671.0	8.227
672.0	8.254
673.0	8.300
674.0	8.317
675.0	8.371
676.0	8.395
677.0	8.421
678.0	8.441
679.0	8.460
680.0	8.500
681.0	8.518
682.0	8.548
683.0	8.582
684.0	8.610
685.0	8.633
686.0	8.624
687.0	8.640
688.0	8.670
689.0	8.717
690.0	8.761
691.0	8.785
692.0	8.807
693.0	8.832
694.0	8.857
695.0	8.873
696.0	8.879
697.0	8.910
698.0	8.937
699.0	8.964
700.0	8.988
701.0	9.019
702.0	9.046
703.0	9.053
704.0	9.085
705.0	9.107
706.0	9.156
707.0	9.166
708.0	9.183
709.0	9.191
710.0	9.211
711.0	9.220
712.0	9.236
713.0	9.241
714.0	9.254
715.0	9.286
716.0	9.346
717.0	9.399
718.0	9.427
719.0	9.453
720.0	9.469
721.0	9.477
722.0	9.482
723.0	9.520
724.0	9.527
725.0	9.556
726.0	9.586
727.0	9.633
728.0	9.649
729.0	9.664
730.0	9.705
731.0	9.740
732.0	9.770
733.0	9.792
734.0	9.855
735.0	9.888
736.0	9.922
737.0	9.912
738.0	9.949
739.0	9.960
740.0	9.985
741.0	9.995
742.0	10.000
743.0	10.020
744.0	10.043
745.0	10.074
746.0	10.096
747.0	10.129
748.0	10.158
749.0	10.187
750.0	10.207
751.0	10.239
752.0	10.241
753.0	10.259
754.0	10.255
755.0	10.318
756.0	10.347
757.0	10.407
758.0	10.419
759.0	10.440
760.0	10.459
761.0	10.464
762.0	10.503
763.0	10.513
764.0	10.546
765.0	10.564
766.0	10.584
767.0	10.626
768.0	10.619
769.0	10.641
770.0	10.647
771.0	10.654
772.0	10.710
773.0	10.704
774.0	10.744
775.0	10.715
776.0	10.760
777.0	10.771
778.0	10.797
779.0	10.801
780.0	10.819
781.0	10.849
782.0	10.856
783.0	10.918
784.0	10.968
785.0	11.024
786.0	11.018
787.0	10.980
788.0	10.983
789.0	10.987
790.0	11.053
791.0	11.086
792.0	11.144
793.0	11.143
794.0	11.191
795.0	11.213
796.0	11.250
797.0	11.234
798.0	11.226
799.0	11.213
800.0	11.242
801.0	11.273
802.0	11.328
803.0	11.375
804.0	11.410
805.0	11.440
806.0	11.431
807.0	11.440
808.0	11.433
809.0	11.477
810.0	11.475
811.0	11.494
812.0	11.497
813.0	11.536
814.0	11.551
815.0	11.560
816.0	11.566
817.0	11.601
818.0	11.619
819.0	11.640
820.0	11.653
821.0	11.682
822.0	11.713
823.0	11.735
824.0	11.730
825.0	11.752
826.0	11.765
827.0	11.805
828.0	11.832
829.0	11.854
830.0	11.876
831.0	11.886
832.0	11.897
833.0	11.929
834.0	11.934
835.0	11.950
836.0	11.973
837.0	12.004
838.0	12.044
839.0	12.044
840.0	12.053
841.0	12.064
842.0	12.088
843.0	12.125
844.0	12.166
845.0	12.163
846.0	12.155
847.0	12.120
848.0	12.176
849.0	12.206
850.0	12.214
851.0	12.172
852.0	12.150
853.0	12.235
854.0	12.279
855.0	12.289
856.0	12.246
857.0	12.227
858.0	12.218
859.0	12.271
860.0	12.314
861.0	12.349
862.0	12.351
863.0	12.389
864.0	12.380
865.0	12.345
866.0	12.287
867.0	12.307
868.0	12.319
869.0	12.375
870.0	12.410
871.0	12.541
872.0	12.437
873.0	12.449
874.0	12.384
875.0	12.618
876.0	12.710
877.0	12.632
878.0	12.620
879.0	12.612
880.0	12.767
881.0	12.841
882.0	12.765
883.0	12.652
884.0	12.586
885.0	12.588
886.0	12.623
887.0	12.434
888.0	12.453
889.0	12.464
890.0	12.480
891.0	12.535
892.0	12.566
893.0	12.582
894.0	12.598
895.0	12.760
896.0	12.569
897.0	12.655
898.0	12.511
899.0	12.799
900.0	12.919
901.0	12.973
902.0	13.114
903.0	13.084
904.0	13.207
905.0	13.249
906.0	13.276
907.0	13.319
908.0	13.343
909.0	13.266
910.0	13.290
911.0	13.181
912.0	13.248
913.0	13.119
914.0	13.227
915.0	13.141
916.0	13.103
917.0	13.028
918.0	12.961
919.0	13.121
920.0	13.136
921.0	13.197
922.0	13.096
923.0	13.129
924.0	13.212
925.0	13.304
926.0	13.323
927.0	13.181
928.0	13.088
929.0	13.062
930.0	13.154
931.0	13.172
932.0	13.197
933.0	13.191
934.0	13.155
935.0	13.151
936.0	13.122
937.0	13.104
938.0	13.126
939.0	13.173
940.0	13.226
941.0	13.155
942.0	13.152
943.0	13.147
944.0	13.194
945.0	13.186
946.0	13.153
947.0	13.180
948.0	13.173
949.0	13.193
950.0	13.135
951.0	13.148
952.0	13.109
953.0	13.122
954.0	13.141
955.0	13.184
956.0	13.161
957.0	13.153
958.0	13.176
959.0	13.181
960.0	13.174
961.0	13.151
962.0	13.184
963.0	13.172
964.0	13.221
965.0	13.201
966.0	13.215
967.0	13.188
968.0	13.153
969.0	13.161
970.0	13.161
971.0	13.226
972.0	13.209
973.0	13.176
974.0	13.159
975.0	13.174
976.0	13.181
977.0	13.180
978.0	13.183
979.0	13.160
980.0	13.108
981.0	13.096
982.0	13.125
983.0	13.166
984.0	13.154
985.0	13.168
986.0	13.157
987.0	13.148
988.0	13.141
989.0	13.129
990.0	13.092
991.0	13.067
992.0	13.067
993.0	13.131
994.0	13.147
995.0	13.170
996.0	13.149
997.0	13.126
998.0	13.112
999.0	13.117
1000.0	13.124
1001.0	13.089
1002.0	13.084
1003.0	13.064
1004.0	13.107
1005.0	13.089
1006.0	13.119
1007.0	13.093
1008.0	13.091
1009.0	13.068
1010.0	13.088
1011.0	13.082
1012.0	13.102
1013.0	13.090
1014.0	13.092
1015.0	13.074
1016.0	13.062
1017.0	13.077
1018.0	13.080
1019.0	13.074
1020.0	13.061
1021.0	13.087
1022.0	13.079
1023.0	13.066
1024.0	13.037
1025.0	13.044
1026.0	13.037
1027.0	13.032
1028.0	13.022
1029.0	13.014
1030.0	13.009
1031.0	12.998
1032.0	13.032
1033.0	13.041
1034.0	13.040
1035.0	13.021
1036.0	12.982
1037.0	13.017
1038.0	13.007
1039.0	13.043
1040.0	13.015
1041.0	13.028
1042.0	13.021
1043.0	13.042
1044.0	13.006
1045.0	12.990
1046.0	12.974
1047.0	12.991
1048.0	12.984
1049.0	12.970
1050.0	12.975
1051.0	12.985
1052.0	12.979
1053.0	12.964
1054.0	12.952
1055.0	12.957
1056.0	12.975
1057.0	12.971
1058.0	12.964
1059.0	12.955
1060.0	12.989
1061.0	12.972
1062.0	12.964
1063.0	12.964
1064.0	12.993
1065.0	13.012
1066.0	12.975
1067.0	12.959
1068.0	12.956
1069.0	12.961
1070.0	12.982
1071.0	12.969
1072.0	12.970
1073.0	12.964
1074.0	12.958
1075.0	12.974
1076.0	12.979
1077.0	12.970
1078.0	12.937
1079.0	12.929
1080.0	12.927
1081.0	12.978
1082.0	12.986
1083.0	13.006
1084.0	12.966
1085.0	12.941
1086.0	12.928
1087.0	12.939
1088.0	12.945
1089.0	12.970
1090.0	12.970
1091.0	12.966
1092.0	12.940
1093.0	12.937
1094.0	12.941
1095.0	12.959
1096.0	12.959
1097.0	12.955
1098.0	12.943
1099.0	12.925
1100.0	12.921
1101.0	12.921
1102.0	12.945
1103.0	12.953
1104.0	12.957
1105.0	12.945
1106.0	12.937
1107.0	12.916
1108.0	12.931
1109.0	12.952
1110.0	12.972
1111.0	12.968
1112.0	12.963
1113.0	12.964
1114.0	12.971
1115.0	12.966
1116.0	12.972
1117.0	12.951
1118.0	12.932
1119.0	12.928
1120.0	12.942
1121.0	12.975
1122.0	12.973
1123.0	12.995
1124.0	12.992
1125.0	12.993
1126.0	12.979
1127.0	12.977
1128.0	12.979
1129.0	12.984
1130.0	12.998
1131.0	13.011
1132.0	13.013
1133.0	13.019
1134.0	13.016
1135.0	13.026
1136.0	13.032
1137.0	13.034
1138.0	13.022
1139.0	13.008
1140.0	13.024
1141.0	13.063
1142.0	13.095
1143.0	13.098
1144.0	13.082
1145.0	13.068
1146.0	13.075
1147.0	13.109
1148.0	13.114
1149.0	13.133
1150.0	13.118
1151.0	13.125
1152.0	13.107
1153.0	13.097
1154.0	13.103
1155.0	13.133
1156.0	13.147
1157.0	13.152
1158.0	13.148
1159.0	13.178
1160.0	13.196
1161.0	13.216
1162.0	13.202
1163.0	13.208
1164.0	13.211
1165.0	13.222
1166.0	13.223
1167.0	13.232
1168.0	13.250
1169.0	13.271
1170.0	13.295
1171.0	13.291
1172.0	13.303
1173.0	13.280
1174.0	13.300
1175.0	13.291
1176.0	13.312
1177.0	13.314
1178.0	13.329
1179.0	13.316
1180.0	13.332
1181.0	13.349
1182.0	13.377
1183.0	13.382
1184.0	13.380
1185.0	13.393
1186.0	13.400
1187.0	13.406
1188.0	13.404
1189.0	13.418
1190.0	13.447
1191.0	13.463
1192.0	13.484
1193.0	13.482
1194.0	13.507
1195.0	13.494
1196.0	13.511
1197.0	13.517
1198.0	13.518
1199.0	13.524
1200.0	13.539
1201.0	13.568
1202.0	13.592
1203.0	13.589
1204.0	13.608
1205.0	13.614
1206.0	13.635
1207.0	13.655
1208.0	13.657
1209.0	13.656
1210.0	13.672
1211.0	13.685
1212.0	13.708
1213.0	13.687
1214.0	13.688
1215.0	13.726
1216.0	13.758
1217.0	13.802
1218.0	13.809
1219.0	13.824
1220.0	13.832
1221.0	13.829
1222.0	13.852
1223.0	13.851
1224.0	13.861
1225.0	13.868
1226.0	13.873
1227.0	13.901
1228.0	13.923
1229.0	13.953
1230.0	13.957
1231.0	13.961
1232.0	13.971
1233.0	13.984
1234.0	14.009
1235.0	14.033
1236.0	14.037
1237.0	14.032
1238.0	14.052
1239.0	14.089
1240.0	14.120
1241.0	14.132
1242.0	14.123
1243.0	14.118
1244.0	14.135
1245.0	14.158
1246.0	14.187
1247.0	14.198
1248.0	14.239
1249.0	14.256
1250.0	14.270
1251.0	14.263
1252.0	14.287
1253.0	14.302
1254.0	14.328
1255.0	14.361
1256.0	14.375
1257.0	14.406
1258.0	14.413
1259.0	14.419
1260.0	14.409
1261.0	14.414
1262.0	14.442
1263.0	14.459
1264.0	14.452
1265.0	14.480
1266.0	14.502
1267.0	14.532
1268.0	14.526
1269.0	14.532
1270.0	14.556
1271.0	14.578
1272.0	14.602
1273.0	14.604
1274.0	14.611
1275.0	14.613
1276.0	14.635
1277.0	14.667
1278.0	14.687
1279.0	14.701
1280.0	14.722
1281.0	14.748
1282.0	14.769
1283.0	14.786
1284.0	14.787
1285.0	14.803
1286.0	14.777
1287.0	14.816
1288.0	14.826
1289.0	14.855
1290.0	14.862
1291.0	14.877
1292.0	14.904
1293.0	14.914
1294.0	14.947
1295.0	14.979
1296.0	14.995
1297.0	15.000
1298.0	15.014
1299.0	15.042
1300.0	15.073
1301.0	15.081
1302.0	15.093
1303.0	15.104
1304.0	15.127
1305.0	15.147
1306.0	15.172
1307.0	15.192
1308.0	15.230
1309.0	15.256
1310.0	15.298
1311.0	15.321
1312.0	15.334
1313.0	15.352
1314.0	15.377
1315.0	15.405
1316.0	15.412
1317.0	15.414
1318.0	15.436
1319.0	15.438
1320.0	15.459
1321.0	15.466
1322.0	15.507
1323.0	15.529
1324.0	15.543
1325.0	15.561
1326.0	15.555
1327.0	15.583
1328.0	15.608
1329.0	15.651
1330.0	15.673
1331.0	15.665
1332.0	15.674
1333.0	15.698
1334.0	15.734
1335.0	15.759
1336.0	15.773
1337.0	15.779
1338.0	15.791
1339.0	15.831
1340.0	15.879
1341.0	15.904
1342.0	15.900
1343.0	15.911
1344.0	15.951
1345.0	15.975
1346.0	15.997
1347.0	15.982
1348.0	16.007
1349.0	16.011
1350.0	16.056
1351.0	16.058
1352.0	16.068
1353.0	16.075
1354.0	16.104
1355.0	16.117
1356.0	16.118
1357.0	16.134
1358.0	16.177
1359.0	16.196
1360.0	16.205
1361.0	16.195
1362.0	16.242
1363.0	16.268
1364.0	16.301
1365.0	16.301
1366.0	16.298
1367.0	16.329
1368.0	16.367
1369.0	16.404
1370.0	16.413
1371.0	16.410
1372.0	16.443
1373.0	16.481
1374.0	16.528
1375.0	16.535
1376.0	16.535
1377.0	16.553
1378.0	16.595
1379.0	16.634
1380.0	16.682
1381.0	16.729
1382.0	16.749
1383.0	16.756
1384.0	16.754
1385.0	16.792
1386.0	16.808
1387.0	16.831
1388.0	16.860
1389.0	16.897
1390.0	16.936
1391.0	16.964
1392.0	16.999
1393.0	17.036
1394.0	17.084
1395.0	17.129
1396.0	17.156
1397.0	17.162
1398.0	17.180
1399.0	17.214
1400.0	17.242
