[SUMMARY]
Software Information
Software Name:	UVProbe
Version:	2.43
Mode:	Normal Mode

Data Information
Data is:	Original
Analyst:	
Date/Time:	05/04/2023 12:13:00
Comments:	

Instrument Information
Instrument Name:	SolidSpec3700
Instrument Type:	SolidSpec-3700 Series
Model (S/N):	SolidSpec3700 ( A11085100264CZ )

[METHOD]
[Measurement Properties]
Wavelength Range (nm.):	285,00 to 1600,00
Scan Speed:	Medium
Sampling Interval:	1,0
Auto Sampling Interval:	Disabled
Scan Mode:	Single

[Sample Preparation Properties]
Weight:	
Volume:	
Dilution:	
Path Length:	
Additional Information:	

[Instrument Properties]
Instrument Type:	SolidSpec-3700 Series
Measuring Mode:	Reflectance
Slit Width:	5,0 nm
Time Constant:	1,0 sec.
Source Lamp:	Auto
Light Source Change Wavelength:	282,00 nm
Detector Unit:	Integral Sphere
Detector Change Wavelength:	900,00 nm  1650,00 nm
Grating Change Wavelength:	1000,00 nm
S/R Exchange:	Inverse
Detector Lock:	Auto
Slit Program:	Fixed
Beam Mode:	Double
Stair Correction:	Disable

[Attachment Properties]
Attachment:	X-Y Stage
Sequence File:	R_robot_16-100-P1_optical_pads.xys

[Operation]
Threshold:	0,0010000
Points:	4
InterPolate:	Disabled
Average:	Disabled

[DATA]
Wavelength	Data
285.0	7.290
286.0	7.482
287.0	7.769
288.0	8.100
289.0	8.444
290.0	8.812
291.0	9.068
292.0	9.363
293.0	9.637
294.0	9.978
295.0	10.311
296.0	10.609
297.0	10.880
298.0	11.135
299.0	11.443
300.0	11.714
301.0	12.050
302.0	12.359
303.0	12.633
304.0	12.836
305.0	13.015
306.0	13.212
307.0	13.306
308.0	13.449
309.0	13.548
310.0	13.763
311.0	13.913
312.0	14.080
313.0	14.188
314.0	14.195
315.0	14.250
316.0	14.253
317.0	14.286
318.0	14.353
319.0	14.373
320.0	14.411
321.0	14.351
322.0	14.320
323.0	14.269
324.0	14.200
325.0	14.181
326.0	14.177
327.0	14.107
328.0	14.061
329.0	13.974
330.0	13.971
331.0	13.929
332.0	13.875
333.0	13.798
334.0	13.653
335.0	13.534
336.0	13.428
337.0	13.340
338.0	13.271
339.0	13.203
340.0	13.117
341.0	13.009
342.0	12.898
343.0	12.804
344.0	12.692
345.0	12.624
346.0	12.529
347.0	12.416
348.0	12.267
349.0	12.129
350.0	12.046
351.0	11.962
352.0	11.845
353.0	11.729
354.0	11.581
355.0	11.492
356.0	11.411
357.0	11.360
358.0	11.277
359.0	11.196
360.0	11.102
361.0	10.988
362.0	10.860
363.0	10.789
364.0	10.753
365.0	10.694
366.0	10.596
367.0	10.498
368.0	10.447
369.0	10.369
370.0	10.317
371.0	10.230
372.0	10.168
373.0	10.098
374.0	10.059
375.0	10.003
376.0	9.971
377.0	9.916
378.0	9.872
379.0	9.807
380.0	9.771
381.0	9.729
382.0	9.701
383.0	9.682
384.0	9.649
385.0	9.616
386.0	9.560
387.0	9.541
388.0	9.492
389.0	9.457
390.0	9.415
391.0	9.412
392.0	9.386
393.0	9.361
394.0	9.337
395.0	9.318
396.0	9.294
397.0	9.258
398.0	9.221
399.0	9.191
400.0	9.154
401.0	9.132
402.0	9.094
403.0	9.069
404.0	9.035
405.0	9.029
406.0	9.011
407.0	8.991
408.0	8.967
409.0	8.962
410.0	8.975
411.0	8.982
412.0	8.992
413.0	9.006
414.0	9.030
415.0	9.037
416.0	9.054
417.0	9.071
418.0	9.100
419.0	9.105
420.0	9.116
421.0	9.115
422.0	9.114
423.0	9.099
424.0	9.100
425.0	9.084
426.0	9.072
427.0	9.047
428.0	9.025
429.0	8.997
430.0	8.959
431.0	8.932
432.0	8.909
433.0	8.882
434.0	8.858
435.0	8.806
436.0	8.774
437.0	8.750
438.0	8.742
439.0	8.718
440.0	8.679
441.0	8.625
442.0	8.596
443.0	8.565
444.0	8.555
445.0	8.512
446.0	8.486
447.0	8.453
448.0	8.435
449.0	8.404
450.0	8.388
451.0	8.363
452.0	8.337
453.0	8.303
454.0	8.284
455.0	8.276
456.0	8.267
457.0	8.251
458.0	8.226
459.0	8.208
460.0	8.194
461.0	8.186
462.0	8.183
463.0	8.177
464.0	8.182
465.0	8.163
466.0	8.165
467.0	8.145
468.0	8.147
469.0	8.131
470.0	8.137
471.0	8.140
472.0	8.150
473.0	8.153
474.0	8.161
475.0	8.151
476.0	8.146
477.0	8.144
478.0	8.150
479.0	8.153
480.0	8.151
481.0	8.159
482.0	8.157
483.0	8.153
484.0	8.152
485.0	8.155
486.0	8.150
487.0	8.143
488.0	8.137
489.0	8.141
490.0	8.139
491.0	8.142
492.0	8.139
493.0	8.137
494.0	8.140
495.0	8.137
496.0	8.133
497.0	8.114
498.0	8.115
499.0	8.114
500.0	8.121
501.0	8.117
502.0	8.118
503.0	8.106
504.0	8.103
505.0	8.091
506.0	8.093
507.0	8.076
508.0	8.070
509.0	8.059
510.0	8.060
511.0	8.063
512.0	8.067
513.0	8.067
514.0	8.057
515.0	8.039
516.0	8.045
517.0	8.041
518.0	8.048
519.0	8.029
520.0	8.019
521.0	8.022
522.0	8.025
523.0	8.035
524.0	8.024
525.0	8.030
526.0	8.030
527.0	8.032
528.0	8.034
529.0	8.034
530.0	8.031
531.0	8.023
532.0	8.021
533.0	8.022
534.0	8.021
535.0	8.027
536.0	8.029
537.0	8.021
538.0	8.012
539.0	8.002
540.0	7.999
541.0	7.991
542.0	7.998
543.0	7.998
544.0	8.001
545.0	7.995
546.0	7.994
547.0	7.995
548.0	8.003
549.0	8.000
550.0	7.990
551.0	7.983
552.0	7.987
553.0	7.990
554.0	7.992
555.0	7.994
556.0	7.979
557.0	7.962
558.0	7.947
559.0	7.949
560.0	7.947
561.0	7.951
562.0	7.949
563.0	7.956
564.0	7.955
565.0	7.956
566.0	7.936
567.0	7.918
568.0	7.898
569.0	7.884
570.0	7.878
571.0	7.871
572.0	7.875
573.0	7.862
574.0	7.849
575.0	7.824
576.0	7.815
577.0	7.796
578.0	7.785
579.0	7.768
580.0	7.764
581.0	7.758
582.0	7.751
583.0	7.733
584.0	7.723
585.0	7.703
586.0	7.695
587.0	7.681
588.0	7.668
589.0	7.646
590.0	7.627
591.0	7.614
592.0	7.611
593.0	7.594
594.0	7.584
595.0	7.561
596.0	7.549
597.0	7.532
598.0	7.512
599.0	7.490
600.0	7.474
601.0	7.460
602.0	7.442
603.0	7.405
604.0	7.379
605.0	7.365
606.0	7.343
607.0	7.322
608.0	7.301
609.0	7.291
610.0	7.280
611.0	7.244
612.0	7.229
613.0	7.213
614.0	7.208
615.0	7.178
616.0	7.149
617.0	7.130
618.0	7.112
619.0	7.086
620.0	7.055
621.0	7.025
622.0	7.004
623.0	6.982
624.0	6.952
625.0	6.925
626.0	6.899
627.0	6.884
628.0	6.864
629.0	6.841
630.0	6.813
631.0	6.794
632.0	6.774
633.0	6.751
634.0	6.726
635.0	6.701
636.0	6.685
637.0	6.663
638.0	6.638
639.0	6.604
640.0	6.569
641.0	6.546
642.0	6.538
643.0	6.524
644.0	6.497
645.0	6.479
646.0	6.452
647.0	6.438
648.0	6.401
649.0	6.378
650.0	6.340
651.0	6.309
652.0	6.280
653.0	6.268
654.0	6.251
655.0	6.227
656.0	6.192
657.0	6.170
658.0	6.144
659.0	6.121
660.0	6.093
661.0	6.069
662.0	6.056
663.0	6.032
664.0	5.999
665.0	5.961
666.0	5.937
667.0	5.929
668.0	5.920
669.0	5.906
670.0	5.876
671.0	5.848
672.0	5.818
673.0	5.799
674.0	5.760
675.0	5.740
676.0	5.723
677.0	5.725
678.0	5.711
679.0	5.690
680.0	5.661
681.0	5.625
682.0	5.587
683.0	5.563
684.0	5.558
685.0	5.543
686.0	5.522
687.0	5.478
688.0	5.453
689.0	5.431
690.0	5.415
691.0	5.383
692.0	5.378
693.0	5.359
694.0	5.352
695.0	5.304
696.0	5.287
697.0	5.263
698.0	5.263
699.0	5.254
700.0	5.252
701.0	5.227
702.0	5.203
703.0	5.171
704.0	5.144
705.0	5.114
706.0	5.102
707.0	5.077
708.0	5.056
709.0	5.039
710.0	5.027
711.0	5.021
712.0	5.000
713.0	4.986
714.0	4.961
715.0	4.955
716.0	4.940
717.0	4.944
718.0	4.929
719.0	4.924
720.0	4.893
721.0	4.852
722.0	4.830
723.0	4.807
724.0	4.806
725.0	4.782
726.0	4.782
727.0	4.762
728.0	4.765
729.0	4.738
730.0	4.725
731.0	4.682
732.0	4.671
733.0	4.658
734.0	4.649
735.0	4.625
736.0	4.605
737.0	4.583
738.0	4.572
739.0	4.567
740.0	4.558
741.0	4.541
742.0	4.513
743.0	4.507
744.0	4.499
745.0	4.488
746.0	4.457
747.0	4.449
748.0	4.436
749.0	4.444
750.0	4.415
751.0	4.396
752.0	4.377
753.0	4.364
754.0	4.351
755.0	4.330
756.0	4.319
757.0	4.313
758.0	4.323
759.0	4.320
760.0	4.313
761.0	4.299
762.0	4.302
763.0	4.291
764.0	4.256
765.0	4.238
766.0	4.234
767.0	4.232
768.0	4.208
769.0	4.194
770.0	4.178
771.0	4.178
772.0	4.162
773.0	4.169
774.0	4.156
775.0	4.141
776.0	4.110
777.0	4.093
778.0	4.102
779.0	4.089
780.0	4.097
781.0	4.075
782.0	4.079
783.0	4.057
784.0	4.050
785.0	4.055
786.0	4.052
787.0	4.057
788.0	4.029
789.0	4.020
790.0	4.006
791.0	4.028
792.0	4.011
793.0	3.986
794.0	3.957
795.0	3.940
796.0	3.956
797.0	3.938
798.0	3.960
799.0	3.961
800.0	3.956
801.0	3.955
802.0	3.941
803.0	3.946
804.0	3.906
805.0	3.909
806.0	3.913
807.0	3.934
808.0	3.913
809.0	3.881
810.0	3.861
811.0	3.856
812.0	3.873
813.0	3.883
814.0	3.869
815.0	3.843
816.0	3.839
817.0	3.858
818.0	3.864
819.0	3.859
820.0	3.854
821.0	3.857
822.0	3.833
823.0	3.817
824.0	3.834
825.0	3.878
826.0	3.869
827.0	3.822
828.0	3.778
829.0	3.767
830.0	3.803
831.0	3.797
832.0	3.809
833.0	3.781
834.0	3.783
835.0	3.820
836.0	3.856
837.0	3.888
838.0	3.821
839.0	3.800
840.0	3.801
841.0	3.841
842.0	3.861
843.0	3.865
844.0	3.899
845.0	3.940
846.0	3.940
847.0	3.879
848.0	3.830
849.0	3.837
850.0	3.856
851.0	3.735
852.0	3.692
853.0	3.693
854.0	3.783
855.0	3.873
856.0	3.846
857.0	3.824
858.0	3.673
859.0	3.731
860.0	3.623
861.0	3.723
862.0	3.696
863.0	3.769
864.0	3.730
865.0	3.837
866.0	3.944
867.0	3.977
868.0	3.859
869.0	3.893
870.0	3.847
871.0	3.774
872.0	3.816
873.0	3.965
874.0	4.288
875.0	4.200
876.0	4.010
877.0	3.846
878.0	3.755
879.0	3.889
880.0	4.014
881.0	4.800
882.0	4.889
883.0	5.131
884.0	4.300
885.0	3.812
886.0	3.103
887.0	3.584
888.0	3.656
889.0	4.434
890.0	4.581
891.0	4.030
892.0	3.318
893.0	2.430
894.0	2.805
895.0	2.568
896.0	3.690
897.0	3.915
898.0	4.414
899.0	3.894
900.0	3.237
901.0	1.538
902.0	2.646
903.0	1.955
904.0	4.346
905.0	2.125
906.0	3.402
907.0	1.815
908.0	2.447
909.0	0.630
910.0	2.809
911.0	3.647
912.0	6.861
913.0	4.508
914.0	1.632
915.0	2.441
916.0	3.766
917.0	4.628
918.0	0.797
919.0	0.107
920.0	1.350
921.0	4.416
922.0	4.958
923.0	5.371
924.0	5.114
925.0	4.664
926.0	5.966
927.0	4.890
928.0	5.110
929.0	3.753
930.0	3.005
931.0	3.496
932.0	4.337
933.0	4.727
934.0	3.425
935.0	3.903
936.0	3.990
937.0	5.206
938.0	3.073
939.0	2.247
940.0	1.679
941.0	1.964
942.0	3.340
943.0	3.228
944.0	4.272
945.0	4.737
946.0	5.075
947.0	4.459
948.0	4.458
949.0	4.679
950.0	4.256
951.0	3.617
952.0	3.428
953.0	3.803
954.0	4.976
955.0	4.984
956.0	4.729
957.0	3.125
958.0	3.038
959.0	3.364
960.0	3.624
961.0	3.546
962.0	3.752
963.0	3.509
964.0	2.716
965.0	1.931
966.0	2.903
967.0	4.320
968.0	4.169
969.0	3.241
970.0	2.708
971.0	4.454
972.0	5.216
973.0	5.190
974.0	4.654
975.0	4.709
976.0	5.384
977.0	4.762
978.0	4.546
979.0	3.798
980.0	4.651
981.0	4.922
982.0	5.036
983.0	4.690
984.0	4.361
985.0	5.008
986.0	4.948
987.0	5.357
988.0	4.677
989.0	4.267
990.0	4.083
991.0	4.785
992.0	4.715
993.0	4.542
994.0	3.729
995.0	4.273
996.0	3.787
997.0	3.980
998.0	3.618
999.0	4.612
1000.0	4.888
1001.0	5.088
1002.0	4.712
1003.0	4.698
1004.0	4.706
1005.0	4.709
1006.0	4.703
1007.0	4.719
1008.0	4.736
1009.0	4.754
1010.0	4.722
1011.0	4.717
1012.0	4.706
1013.0	4.718
1014.0	4.734
1015.0	4.746
1016.0	4.746
1017.0	4.727
1018.0	4.735
1019.0	4.745
1020.0	4.764
1021.0	4.764
1022.0	4.735
1023.0	4.740
1024.0	4.721
1025.0	4.737
1026.0	4.747
1027.0	4.790
1028.0	4.823
1029.0	4.835
1030.0	4.849
1031.0	4.858
1032.0	4.848
1033.0	4.838
1034.0	4.844
1035.0	4.827
1036.0	4.825
1037.0	4.818
1038.0	4.833
1039.0	4.842
1040.0	4.846
1041.0	4.860
1042.0	4.880
1043.0	4.890
1044.0	4.883
1045.0	4.862
1046.0	4.857
1047.0	4.861
1048.0	4.858
1049.0	4.858
1050.0	4.864
1051.0	4.893
1052.0	4.888
1053.0	4.896
1054.0	4.897
1055.0	4.894
1056.0	4.910
1057.0	4.906
1058.0	4.934
1059.0	4.927
1060.0	4.918
1061.0	4.918
1062.0	4.939
1063.0	4.946
1064.0	4.955
1065.0	4.954
1066.0	4.977
1067.0	4.990
1068.0	4.993
1069.0	4.985
1070.0	4.963
1071.0	4.966
1072.0	4.973
1073.0	5.004
1074.0	5.002
1075.0	5.008
1076.0	5.005
1077.0	5.023
1078.0	5.022
1079.0	5.027
1080.0	5.018
1081.0	5.023
1082.0	5.024
1083.0	5.037
1084.0	5.052
1085.0	5.042
1086.0	5.056
1087.0	5.038
1088.0	5.071
1089.0	5.052
1090.0	5.055
1091.0	5.028
1092.0	5.047
1093.0	5.061
1094.0	5.079
1095.0	5.084
1096.0	5.084
1097.0	5.104
1098.0	5.086
1099.0	5.091
1100.0	5.084
1101.0	5.091
1102.0	5.118
1103.0	5.116
1104.0	5.125
1105.0	5.116
1106.0	5.126
1107.0	5.124
1108.0	5.112
1109.0	5.101
1110.0	5.118
1111.0	5.136
1112.0	5.149
1113.0	5.126
1114.0	5.129
1115.0	5.125
1116.0	5.166
1117.0	5.179
1118.0	5.196
1119.0	5.201
1120.0	5.195
1121.0	5.201
1122.0	5.197
1123.0	5.188
1124.0	5.199
1125.0	5.221
1126.0	5.230
1127.0	5.228
1128.0	5.211
1129.0	5.221
1130.0	5.231
1131.0	5.233
1132.0	5.247
1133.0	5.236
1134.0	5.238
1135.0	5.243
1136.0	5.268
1137.0	5.268
1138.0	5.291
1139.0	5.285
1140.0	5.287
1141.0	5.275
1142.0	5.288
1143.0	5.321
1144.0	5.318
1145.0	5.323
1146.0	5.306
1147.0	5.311
1148.0	5.292
1149.0	5.289
1150.0	5.296
1151.0	5.325
1152.0	5.341
1153.0	5.353
1154.0	5.346
1155.0	5.355
1156.0	5.358
1157.0	5.377
1158.0	5.400
1159.0	5.408
1160.0	5.407
1161.0	5.397
1162.0	5.413
1163.0	5.417
1164.0	5.425
1165.0	5.404
1166.0	5.419
1167.0	5.432
1168.0	5.452
1169.0	5.474
1170.0	5.483
1171.0	5.511
1172.0	5.510
1173.0	5.520
1174.0	5.516
1175.0	5.511
1176.0	5.516
1177.0	5.517
1178.0	5.526
1179.0	5.533
1180.0	5.567
1181.0	5.573
1182.0	5.567
1183.0	5.543
1184.0	5.531
1185.0	5.544
1186.0	5.564
1187.0	5.590
1188.0	5.608
1189.0	5.615
1190.0	5.630
1191.0	5.652
1192.0	5.664
1193.0	5.664
1194.0	5.650
1195.0	5.670
1196.0	5.685
1197.0	5.694
1198.0	5.682
1199.0	5.682
1200.0	5.695
1201.0	5.718
1202.0	5.751
1203.0	5.740
1204.0	5.739
1205.0	5.721
1206.0	5.754
1207.0	5.755
1208.0	5.778
1209.0	5.776
1210.0	5.792
1211.0	5.797
1212.0	5.826
1213.0	5.850
1214.0	5.849
1215.0	5.843
1216.0	5.838
1217.0	5.850
1218.0	5.866
1219.0	5.876
1220.0	5.901
1221.0	5.922
1222.0	5.931
1223.0	5.946
1224.0	5.947
1225.0	5.965
1226.0	5.978
1227.0	5.996
1228.0	6.006
1229.0	5.994
1230.0	5.997
1231.0	5.994
1232.0	6.019
1233.0	6.038
1234.0	6.068
1235.0	6.089
1236.0	6.097
1237.0	6.111
1238.0	6.113
1239.0	6.123
1240.0	6.105
1241.0	6.121
1242.0	6.130
1243.0	6.161
1244.0	6.167
1245.0	6.190
1246.0	6.210
1247.0	6.225
1248.0	6.228
1249.0	6.261
1250.0	6.270
1251.0	6.283
1252.0	6.277
1253.0	6.304
1254.0	6.327
1255.0	6.344
1256.0	6.358
1257.0	6.373
1258.0	6.384
1259.0	6.402
1260.0	6.404
1261.0	6.418
1262.0	6.426
1263.0	6.442
1264.0	6.445
1265.0	6.451
1266.0	6.476
1267.0	6.498
1268.0	6.521
1269.0	6.525
1270.0	6.522
1271.0	6.550
1272.0	6.574
1273.0	6.621
1274.0	6.624
1275.0	6.625
1276.0	6.622
1277.0	6.609
1278.0	6.615
1279.0	6.622
1280.0	6.669
1281.0	6.688
1282.0	6.712
1283.0	6.693
1284.0	6.711
1285.0	6.716
1286.0	6.745
1287.0	6.766
1288.0	6.784
1289.0	6.811
1290.0	6.830
1291.0	6.857
1292.0	6.866
1293.0	6.878
1294.0	6.891
1295.0	6.896
1296.0	6.897
1297.0	6.916
1298.0	6.936
1299.0	6.970
1300.0	6.982
1301.0	6.999
1302.0	7.007
1303.0	7.024
1304.0	7.041
1305.0	7.045
1306.0	7.070
1307.0	7.083
1308.0	7.111
1309.0	7.137
1310.0	7.161
1311.0	7.195
1312.0	7.220
1313.0	7.236
1314.0	7.231
1315.0	7.241
1316.0	7.254
1317.0	7.282
1318.0	7.282
1319.0	7.300
1320.0	7.313
1321.0	7.345
1322.0	7.390
1323.0	7.435
1324.0	7.424
1325.0	7.415
1326.0	7.400
1327.0	7.448
1328.0	7.488
1329.0	7.521
1330.0	7.546
1331.0	7.570
1332.0	7.597
1333.0	7.619
1334.0	7.635
1335.0	7.656
1336.0	7.666
1337.0	7.688
1338.0	7.696
1339.0	7.718
1340.0	7.747
1341.0	7.763
1342.0	7.776
1343.0	7.766
1344.0	7.799
1345.0	7.806
1346.0	7.824
1347.0	7.808
1348.0	7.820
1349.0	7.826
1350.0	7.838
1351.0	7.862
1352.0	7.905
1353.0	7.934
1354.0	7.949
1355.0	7.971
1356.0	7.996
1357.0	8.000
1358.0	8.009
1359.0	8.024
1360.0	8.042
1361.0	8.043
1362.0	8.085
1363.0	8.129
1364.0	8.174
1365.0	8.164
1366.0	8.169
1367.0	8.181
1368.0	8.216
1369.0	8.224
1370.0	8.235
1371.0	8.265
1372.0	8.302
1373.0	8.336
1374.0	8.350
1375.0	8.373
1376.0	8.393
1377.0	8.409
1378.0	8.423
1379.0	8.457
1380.0	8.502
1381.0	8.521
1382.0	8.514
1383.0	8.533
1384.0	8.587
1385.0	8.627
1386.0	8.651
1387.0	8.660
1388.0	8.692
1389.0	8.683
1390.0	8.709
1391.0	8.733
1392.0	8.805
1393.0	8.828
1394.0	8.840
1395.0	8.858
1396.0	8.887
1397.0	8.931
1398.0	8.927
1399.0	8.972
1400.0	8.987
1401.0	9.038
1402.0	9.080
1403.0	9.136
1404.0	9.185
1405.0	9.193
1406.0	9.198
1407.0	9.190
1408.0	9.228
1409.0	9.249
1410.0	9.290
1411.0	9.283
1412.0	9.299
1413.0	9.324
1414.0	9.355
1415.0	9.389
1416.0	9.421
1417.0	9.448
1418.0	9.462
1419.0	9.468
1420.0	9.497
1421.0	9.516
1422.0	9.532
1423.0	9.530
1424.0	9.573
1425.0	9.584
1426.0	9.646
1427.0	9.668
1428.0	9.718
1429.0	9.705
1430.0	9.709
1431.0	9.700
1432.0	9.733
1433.0	9.747
1434.0	9.796
1435.0	9.791
1436.0	9.838
1437.0	9.836
1438.0	9.901
1439.0	9.913
1440.0	9.949
1441.0	9.936
1442.0	9.950
1443.0	9.953
1444.0	9.981
1445.0	10.008
1446.0	10.028
1447.0	10.064
1448.0	10.077
1449.0	10.109
1450.0	10.124
1451.0	10.129
1452.0	10.138
1453.0	10.172
1454.0	10.218
1455.0	10.246
1456.0	10.237
1457.0	10.246
1458.0	10.264
1459.0	10.288
1460.0	10.286
1461.0	10.309
1462.0	10.303
1463.0	10.312
1464.0	10.325
1465.0	10.329
1466.0	10.343
1467.0	10.326
1468.0	10.376
1469.0	10.424
1470.0	10.446
1471.0	10.453
1472.0	10.423
1473.0	10.451
1474.0	10.472
1475.0	10.481
1476.0	10.484
1477.0	10.457
1478.0	10.503
1479.0	10.520
1480.0	10.564
1481.0	10.571
1482.0	10.602
1483.0	10.598
1484.0	10.602
1485.0	10.589
1486.0	10.643
1487.0	10.659
1488.0	10.664
1489.0	10.650
1490.0	10.693
1491.0	10.771
1492.0	10.784
1493.0	10.757
1494.0	10.752
1495.0	10.772
1496.0	10.793
1497.0	10.779
1498.0	10.802
1499.0	10.828
1500.0	10.827
1501.0	10.826
1502.0	10.860
1503.0	10.854
1504.0	10.882
1505.0	10.881
1506.0	10.912
1507.0	10.927
1508.0	10.931
1509.0	10.969
1510.0	10.974
1511.0	11.003
1512.0	11.016
1513.0	10.994
1514.0	10.999
1515.0	11.034
1516.0	11.096
1517.0	11.086
1518.0	11.057
1519.0	11.068
1520.0	11.087
1521.0	11.048
1522.0	11.040
1523.0	11.060
1524.0	11.147
1525.0	11.167
1526.0	11.190
1527.0	11.219
1528.0	11.210
1529.0	11.197
1530.0	11.179
1531.0	11.203
1532.0	11.217
1533.0	11.264
1534.0	11.300
1535.0	11.303
1536.0	11.282
1537.0	11.259
1538.0	11.315
1539.0	11.317
1540.0	11.321
1541.0	11.299
1542.0	11.326
1543.0	11.339
1544.0	11.348
1545.0	11.343
1546.0	11.359
1547.0	11.417
1548.0	11.445
1549.0	11.490
1550.0	11.472
1551.0	11.492
1552.0	11.471
1553.0	11.507
1554.0	11.498
1555.0	11.535
1556.0	11.526
1557.0	11.547
1558.0	11.568
1559.0	11.589
1560.0	11.615
1561.0	11.647
1562.0	11.653
1563.0	11.682
1564.0	11.663
1565.0	11.693
1566.0	11.739
1567.0	11.751
1568.0	11.761
1569.0	11.744
1570.0	11.762
1571.0	11.753
1572.0	11.732
1573.0	11.729
1574.0	11.804
1575.0	11.809
1576.0	11.879
1577.0	11.816
1578.0	11.859
1579.0	11.805
1580.0	11.866
1581.0	11.841
1582.0	11.879
1583.0	11.847
1584.0	11.889
1585.0	11.884
1586.0	11.910
1587.0	11.904
1588.0	11.950
1589.0	11.963
1590.0	12.003
1591.0	12.010
1592.0	12.042
1593.0	12.076
1594.0	12.097
1595.0	12.076
1596.0	12.104
1597.0	12.160
1598.0	12.223
1599.0	12.187
1600.0	12.136
