[SUMMARY]
Software Information
Software Name:	UVProbe
Version:	2.43
Mode:	Normal Mode

Data Information
Data is:	Original
Analyst:	
Date/Time:	05/04/2023 11:55:16
Comments:	

Instrument Information
Instrument Name:	SolidSpec3700
Instrument Type:	SolidSpec-3700 Series
Model (S/N):	SolidSpec3700 ( A11085100264CZ )

[METHOD]
[Measurement Properties]
Wavelength Range (nm.):	285,00 to 1600,00
Scan Speed:	Medium
Sampling Interval:	1,0
Auto Sampling Interval:	Disabled
Scan Mode:	Single

[Sample Preparation Properties]
Weight:	
Volume:	
Dilution:	
Path Length:	
Additional Information:	

[Instrument Properties]
Instrument Type:	SolidSpec-3700 Series
Measuring Mode:	Reflectance
Slit Width:	5,0 nm
Time Constant:	1,0 sec.
Source Lamp:	Auto
Light Source Change Wavelength:	282,00 nm
Detector Unit:	Integral Sphere
Detector Change Wavelength:	900,00 nm  1650,00 nm
Grating Change Wavelength:	1000,00 nm
S/R Exchange:	Inverse
Detector Lock:	Auto
Slit Program:	Fixed
Beam Mode:	Double
Stair Correction:	Disable

[Attachment Properties]
Attachment:	X-Y Stage
Sequence File:	R_robot_16-100-P1_optical_pads.xys

[Operation]
Threshold:	0,0010000
Points:	4
InterPolate:	Disabled
Average:	Disabled

[DATA]
Wavelength	Data
285.0	6.698
286.0	6.653
287.0	6.659
288.0	6.697
289.0	6.752
290.0	6.770
291.0	6.819
292.0	6.832
293.0	6.813
294.0	6.823
295.0	6.788
296.0	6.825
297.0	6.772
298.0	6.802
299.0	6.755
300.0	6.774
301.0	6.766
302.0	6.748
303.0	6.742
304.0	6.736
305.0	6.736
306.0	6.738
307.0	6.699
308.0	6.692
309.0	6.673
310.0	6.652
311.0	6.670
312.0	6.644
313.0	6.632
314.0	6.600
315.0	6.591
316.0	6.570
317.0	6.554
318.0	6.541
319.0	6.564
320.0	6.565
321.0	6.560
322.0	6.547
323.0	6.526
324.0	6.529
325.0	6.545
326.0	6.563
327.0	6.567
328.0	6.561
329.0	6.510
330.0	6.511
331.0	6.489
332.0	6.502
333.0	6.488
334.0	6.470
335.0	6.454
336.0	6.446
337.0	6.437
338.0	6.443
339.0	6.448
340.0	6.453
341.0	6.443
342.0	6.425
343.0	6.410
344.0	6.398
345.0	6.393
346.0	6.392
347.0	6.371
348.0	6.324
349.0	6.289
350.0	6.274
351.0	6.273
352.0	6.228
353.0	6.203
354.0	6.178
355.0	6.176
356.0	6.159
357.0	6.122
358.0	6.110
359.0	6.079
360.0	6.050
361.0	6.002
362.0	5.970
363.0	5.939
364.0	5.910
365.0	5.906
366.0	5.893
367.0	5.883
368.0	5.835
369.0	5.793
370.0	5.759
371.0	5.740
372.0	5.730
373.0	5.713
374.0	5.695
375.0	5.674
376.0	5.652
377.0	5.627
378.0	5.599
379.0	5.577
380.0	5.537
381.0	5.529
382.0	5.510
383.0	5.486
384.0	5.452
385.0	5.425
386.0	5.426
387.0	5.428
388.0	5.416
389.0	5.395
390.0	5.375
391.0	5.362
392.0	5.345
393.0	5.327
394.0	5.319
395.0	5.311
396.0	5.299
397.0	5.289
398.0	5.289
399.0	5.286
400.0	5.279
401.0	5.265
402.0	5.255
403.0	5.251
404.0	5.233
405.0	5.223
406.0	5.205
407.0	5.199
408.0	5.179
409.0	5.167
410.0	5.163
411.0	5.159
412.0	5.151
413.0	5.138
414.0	5.138
415.0	5.140
416.0	5.144
417.0	5.154
418.0	5.152
419.0	5.154
420.0	5.151
421.0	5.154
422.0	5.146
423.0	5.140
424.0	5.136
425.0	5.140
426.0	5.138
427.0	5.147
428.0	5.150
429.0	5.154
430.0	5.156
431.0	5.162
432.0	5.171
433.0	5.177
434.0	5.189
435.0	5.207
436.0	5.222
437.0	5.233
438.0	5.232
439.0	5.258
440.0	5.277
441.0	5.296
442.0	5.299
443.0	5.309
444.0	5.322
445.0	5.350
446.0	5.380
447.0	5.417
448.0	5.440
449.0	5.459
450.0	5.492
451.0	5.511
452.0	5.549
453.0	5.567
454.0	5.604
455.0	5.635
456.0	5.679
457.0	5.722
458.0	5.761
459.0	5.804
460.0	5.843
461.0	5.879
462.0	5.917
463.0	5.952
464.0	5.996
465.0	6.039
466.0	6.096
467.0	6.140
468.0	6.186
469.0	6.235
470.0	6.291
471.0	6.350
472.0	6.409
473.0	6.468
474.0	6.534
475.0	6.603
476.0	6.665
477.0	6.727
478.0	6.800
479.0	6.887
480.0	6.969
481.0	7.039
482.0	7.107
483.0	7.184
484.0	7.261
485.0	7.350
486.0	7.423
487.0	7.505
488.0	7.584
489.0	7.668
490.0	7.755
491.0	7.833
492.0	7.928
493.0	8.012
494.0	8.099
495.0	8.188
496.0	8.282
497.0	8.379
498.0	8.479
499.0	8.576
500.0	8.677
501.0	8.760
502.0	8.864
503.0	8.961
504.0	9.077
505.0	9.162
506.0	9.266
507.0	9.370
508.0	9.491
509.0	9.596
510.0	9.696
511.0	9.790
512.0	9.909
513.0	10.011
514.0	10.119
515.0	10.209
516.0	10.318
517.0	10.429
518.0	10.530
519.0	10.644
520.0	10.747
521.0	10.861
522.0	10.960
523.0	11.080
524.0	11.193
525.0	11.316
526.0	11.420
527.0	11.532
528.0	11.643
529.0	11.769
530.0	11.891
531.0	12.008
532.0	12.117
533.0	12.229
534.0	12.330
535.0	12.432
536.0	12.542
537.0	12.654
538.0	12.779
539.0	12.885
540.0	13.000
541.0	13.109
542.0	13.209
543.0	13.319
544.0	13.420
545.0	13.538
546.0	13.650
547.0	13.768
548.0	13.879
549.0	13.979
550.0	14.068
551.0	14.168
552.0	14.266
553.0	14.365
554.0	14.468
555.0	14.582
556.0	14.699
557.0	14.793
558.0	14.891
559.0	14.976
560.0	15.075
561.0	15.165
562.0	15.258
563.0	15.361
564.0	15.453
565.0	15.554
566.0	15.637
567.0	15.726
568.0	15.810
569.0	15.899
570.0	15.990
571.0	16.084
572.0	16.160
573.0	16.241
574.0	16.318
575.0	16.417
576.0	16.507
577.0	16.613
578.0	16.714
579.0	16.816
580.0	16.903
581.0	16.987
582.0	17.085
583.0	17.190
584.0	17.296
585.0	17.378
586.0	17.476
587.0	17.559
588.0	17.655
589.0	17.732
590.0	17.824
591.0	17.927
592.0	18.009
593.0	18.098
594.0	18.178
595.0	18.277
596.0	18.363
597.0	18.439
598.0	18.513
599.0	18.597
600.0	18.684
601.0	18.774
602.0	18.841
603.0	18.929
604.0	18.996
605.0	19.049
606.0	19.116
607.0	19.157
608.0	19.239
609.0	19.278
610.0	19.363
611.0	19.423
612.0	19.495
613.0	19.561
614.0	19.623
615.0	19.673
616.0	19.713
617.0	19.747
618.0	19.784
619.0	19.838
620.0	19.892
621.0	19.938
622.0	19.971
623.0	20.021
624.0	20.061
625.0	20.100
626.0	20.124
627.0	20.172
628.0	20.234
629.0	20.286
630.0	20.339
631.0	20.355
632.0	20.424
633.0	20.476
634.0	20.545
635.0	20.582
636.0	20.625
637.0	20.651
638.0	20.699
639.0	20.746
640.0	20.821
641.0	20.882
642.0	20.945
643.0	21.013
644.0	21.089
645.0	21.170
646.0	21.247
647.0	21.324
648.0	21.417
649.0	21.498
650.0	21.571
651.0	21.652
652.0	21.739
653.0	21.843
654.0	21.909
655.0	22.002
656.0	22.070
657.0	22.176
658.0	22.251
659.0	22.331
660.0	22.415
661.0	22.488
662.0	22.564
663.0	22.626
664.0	22.696
665.0	22.780
666.0	22.860
667.0	22.940
668.0	23.042
669.0	23.140
670.0	23.235
671.0	23.317
672.0	23.391
673.0	23.476
674.0	23.523
675.0	23.583
676.0	23.638
677.0	23.693
678.0	23.742
679.0	23.804
680.0	23.853
681.0	23.882
682.0	23.887
683.0	23.913
684.0	23.925
685.0	23.918
686.0	23.906
687.0	23.908
688.0	23.907
689.0	23.881
690.0	23.849
691.0	23.773
692.0	23.735
693.0	23.677
694.0	23.664
695.0	23.569
696.0	23.493
697.0	23.382
698.0	23.279
699.0	23.185
700.0	23.117
701.0	23.069
702.0	22.962
703.0	22.846
704.0	22.709
705.0	22.583
706.0	22.465
707.0	22.363
708.0	22.258
709.0	22.122
710.0	21.976
711.0	21.862
712.0	21.745
713.0	21.629
714.0	21.504
715.0	21.362
716.0	21.222
717.0	21.057
718.0	20.948
719.0	20.819
720.0	20.705
721.0	20.510
722.0	20.380
723.0	20.259
724.0	20.200
725.0	20.072
726.0	19.926
727.0	19.804
728.0	19.712
729.0	19.630
730.0	19.512
731.0	19.379
732.0	19.236
733.0	19.130
734.0	18.990
735.0	18.877
736.0	18.800
737.0	18.708
738.0	18.611
739.0	18.491
740.0	18.410
741.0	18.352
742.0	18.221
743.0	18.158
744.0	18.051
745.0	17.999
746.0	17.932
747.0	17.861
748.0	17.796
749.0	17.698
750.0	17.593
751.0	17.502
752.0	17.432
753.0	17.428
754.0	17.344
755.0	17.283
756.0	17.197
757.0	17.153
758.0	17.079
759.0	17.015
760.0	16.967
761.0	16.974
762.0	16.922
763.0	16.882
764.0	16.779
765.0	16.705
766.0	16.595
767.0	16.590
768.0	16.522
769.0	16.541
770.0	16.430
771.0	16.381
772.0	16.348
773.0	16.280
774.0	16.262
775.0	16.177
776.0	16.191
777.0	16.155
778.0	16.125
779.0	16.054
780.0	16.022
781.0	15.997
782.0	15.971
783.0	15.894
784.0	15.847
785.0	15.810
786.0	15.807
787.0	15.732
788.0	15.721
789.0	15.691
790.0	15.662
791.0	15.613
792.0	15.532
793.0	15.513
794.0	15.464
795.0	15.454
796.0	15.429
797.0	15.408
798.0	15.417
799.0	15.387
800.0	15.313
801.0	15.260
802.0	15.259
803.0	15.302
804.0	15.333
805.0	15.277
806.0	15.195
807.0	15.095
808.0	15.042
809.0	15.062
810.0	15.081
811.0	15.068
812.0	15.077
813.0	15.041
814.0	15.055
815.0	15.013
816.0	15.014
817.0	14.965
818.0	14.880
819.0	14.845
820.0	14.813
821.0	14.793
822.0	14.783
823.0	14.742
824.0	14.757
825.0	14.646
826.0	14.606
827.0	14.599
828.0	14.623
829.0	14.674
830.0	14.614
831.0	14.511
832.0	14.431
833.0	14.376
834.0	14.400
835.0	14.455
836.0	14.485
837.0	14.502
838.0	14.503
839.0	14.604
840.0	14.655
841.0	14.525
842.0	14.392
843.0	14.308
844.0	14.383
845.0	14.466
846.0	14.397
847.0	14.400
848.0	14.384
849.0	14.365
850.0	14.292
851.0	14.132
852.0	14.260
853.0	14.269
854.0	14.352
855.0	14.056
856.0	14.087
857.0	13.839
858.0	14.018
859.0	13.730
860.0	13.730
861.0	13.669
862.0	13.822
863.0	13.769
864.0	13.808
865.0	13.795
866.0	13.671
867.0	13.508
868.0	13.248
869.0	13.053
870.0	13.296
871.0	13.370
872.0	14.175
873.0	13.904
874.0	13.933
875.0	13.958
876.0	13.811
877.0	13.957
878.0	13.241
879.0	13.261
880.0	13.186
881.0	13.713
882.0	13.227
883.0	13.286
884.0	12.651
885.0	13.742
886.0	14.375
887.0	15.394
888.0	15.371
889.0	14.170
890.0	13.245
891.0	12.830
892.0	12.761
893.0	13.004
894.0	13.506
895.0	14.675
896.0	15.368
897.0	13.758
898.0	12.713
899.0	13.132
900.0	14.097
901.0	13.792
902.0	13.874
903.0	14.377
904.0	13.785
905.0	12.571
906.0	9.935
907.0	12.376
908.0	12.854
909.0	14.299
910.0	12.653
911.0	11.442
912.0	13.669
913.0	12.908
914.0	12.608
915.0	11.369
916.0	12.302
917.0	13.899
918.0	15.307
919.0	15.440
920.0	14.431
921.0	12.115
922.0	13.613
923.0	13.577
924.0	14.923
925.0	14.676
926.0	15.295
927.0	14.930
928.0	12.855
929.0	12.335
930.0	12.153
931.0	13.554
932.0	14.895
933.0	13.847
934.0	12.669
935.0	10.599
936.0	12.046
937.0	13.354
938.0	13.973
939.0	13.052
940.0	12.898
941.0	13.091
942.0	13.740
943.0	12.706
944.0	13.177
945.0	12.145
946.0	12.964
947.0	13.208
948.0	14.974
949.0	14.240
950.0	13.021
951.0	11.985
952.0	12.115
953.0	13.259
954.0	12.965
955.0	13.274
956.0	11.930
957.0	12.151
958.0	12.312
959.0	12.913
960.0	13.480
961.0	13.791
962.0	13.915
963.0	13.153
964.0	12.458
965.0	12.596
966.0	12.956
967.0	13.368
968.0	13.651
969.0	14.326
970.0	13.565
971.0	13.326
972.0	12.558
973.0	13.247
974.0	13.067
975.0	14.208
976.0	14.334
977.0	14.744
978.0	13.825
979.0	14.069
980.0	13.355
981.0	12.984
982.0	12.845
983.0	12.513
984.0	12.408
985.0	12.519
986.0	13.628
987.0	13.896
988.0	12.919
989.0	12.217
990.0	11.456
991.0	12.183
992.0	12.310
993.0	12.898
994.0	12.523
995.0	12.408
996.0	12.992
997.0	12.339
998.0	12.623
999.0	12.627
1000.0	13.463
1001.0	13.590
1002.0	13.154
1003.0	13.191
1004.0	13.164
1005.0	13.137
1006.0	13.136
1007.0	13.146
1008.0	13.154
1009.0	13.121
1010.0	13.095
1011.0	13.105
1012.0	13.085
1013.0	13.102
1014.0	13.046
1015.0	13.050
1016.0	12.991
1017.0	12.963
1018.0	12.965
1019.0	12.965
1020.0	12.999
1021.0	12.995
1022.0	12.982
1023.0	12.962
1024.0	12.914
1025.0	12.925
1026.0	12.924
1027.0	12.924
1028.0	12.898
1029.0	12.867
1030.0	12.865
1031.0	12.849
1032.0	12.831
1033.0	12.803
1034.0	12.792
1035.0	12.804
1036.0	12.788
1037.0	12.770
1038.0	12.762
1039.0	12.756
1040.0	12.778
1041.0	12.750
1042.0	12.734
1043.0	12.697
1044.0	12.683
1045.0	12.673
1046.0	12.653
1047.0	12.652
1048.0	12.630
1049.0	12.629
1050.0	12.610
1051.0	12.607
1052.0	12.580
1053.0	12.570
1054.0	12.554
1055.0	12.544
1056.0	12.511
1057.0	12.474
1058.0	12.485
1059.0	12.468
1060.0	12.484
1061.0	12.461
1062.0	12.465
1063.0	12.461
1064.0	12.455
1065.0	12.459
1066.0	12.447
1067.0	12.442
1068.0	12.425
1069.0	12.398
1070.0	12.351
1071.0	12.326
1072.0	12.339
1073.0	12.351
1074.0	12.344
1075.0	12.304
1076.0	12.288
1077.0	12.270
1078.0	12.274
1079.0	12.259
1080.0	12.256
1081.0	12.224
1082.0	12.201
1083.0	12.189
1084.0	12.202
1085.0	12.183
1086.0	12.164
1087.0	12.144
1088.0	12.143
1089.0	12.116
1090.0	12.104
1091.0	12.119
1092.0	12.122
1093.0	12.122
1094.0	12.091
1095.0	12.069
1096.0	12.026
1097.0	12.013
1098.0	11.988
1099.0	11.983
1100.0	11.951
1101.0	11.950
1102.0	11.941
1103.0	11.919
1104.0	11.913
1105.0	11.884
1106.0	11.881
1107.0	11.850
1108.0	11.821
1109.0	11.819
1110.0	11.825
1111.0	11.821
1112.0	11.785
1113.0	11.762
1114.0	11.756
1115.0	11.764
1116.0	11.758
1117.0	11.754
1118.0	11.741
1119.0	11.703
1120.0	11.679
1121.0	11.666
1122.0	11.661
1123.0	11.667
1124.0	11.653
1125.0	11.631
1126.0	11.593
1127.0	11.553
1128.0	11.557
1129.0	11.556
1130.0	11.574
1131.0	11.564
1132.0	11.549
1133.0	11.515
1134.0	11.506
1135.0	11.513
1136.0	11.496
1137.0	11.478
1138.0	11.442
1139.0	11.436
1140.0	11.425
1141.0	11.397
1142.0	11.386
1143.0	11.370
1144.0	11.368
1145.0	11.351
1146.0	11.352
1147.0	11.339
1148.0	11.344
1149.0	11.308
1150.0	11.315
1151.0	11.300
1152.0	11.306
1153.0	11.269
1154.0	11.252
1155.0	11.214
1156.0	11.218
1157.0	11.196
1158.0	11.198
1159.0	11.184
1160.0	11.177
1161.0	11.159
1162.0	11.134
1163.0	11.130
1164.0	11.114
1165.0	11.103
1166.0	11.079
1167.0	11.070
1168.0	11.040
1169.0	11.010
1170.0	11.001
1171.0	10.991
1172.0	11.007
1173.0	10.988
1174.0	10.974
1175.0	10.950
1176.0	10.938
1177.0	10.941
1178.0	10.921
1179.0	10.920
1180.0	10.910
1181.0	10.912
1182.0	10.871
1183.0	10.835
1184.0	10.819
1185.0	10.841
1186.0	10.845
1187.0	10.822
1188.0	10.762
1189.0	10.753
1190.0	10.720
1191.0	10.732
1192.0	10.714
1193.0	10.723
1194.0	10.714
1195.0	10.674
1196.0	10.650
1197.0	10.625
1198.0	10.646
1199.0	10.631
1200.0	10.599
1201.0	10.567
1202.0	10.572
1203.0	10.578
1204.0	10.557
1205.0	10.539
1206.0	10.512
1207.0	10.503
1208.0	10.464
1209.0	10.454
1210.0	10.461
1211.0	10.468
1212.0	10.470
1213.0	10.453
1214.0	10.433
1215.0	10.410
1216.0	10.402
1217.0	10.368
1218.0	10.364
1219.0	10.336
1220.0	10.332
1221.0	10.309
1222.0	10.314
1223.0	10.330
1224.0	10.326
1225.0	10.290
1226.0	10.260
1227.0	10.261
1228.0	10.244
1229.0	10.244
1230.0	10.221
1231.0	10.215
1232.0	10.195
1233.0	10.184
1234.0	10.170
1235.0	10.155
1236.0	10.130
1237.0	10.117
1238.0	10.095
1239.0	10.106
1240.0	10.092
1241.0	10.077
1242.0	10.037
1243.0	10.032
1244.0	10.038
1245.0	10.022
1246.0	10.006
1247.0	9.977
1248.0	9.971
1249.0	9.977
1250.0	9.973
1251.0	9.964
1252.0	9.939
1253.0	9.930
1254.0	9.913
1255.0	9.893
1256.0	9.882
1257.0	9.881
1258.0	9.874
1259.0	9.858
1260.0	9.847
1261.0	9.829
1262.0	9.835
1263.0	9.837
1264.0	9.840
1265.0	9.832
1266.0	9.800
1267.0	9.784
1268.0	9.755
1269.0	9.753
1270.0	9.755
1271.0	9.738
1272.0	9.729
1273.0	9.711
1274.0	9.720
1275.0	9.720
1276.0	9.713
1277.0	9.695
1278.0	9.683
1279.0	9.668
1280.0	9.664
1281.0	9.656
1282.0	9.658
1283.0	9.647
1284.0	9.635
1285.0	9.613
1286.0	9.584
1287.0	9.564
1288.0	9.556
1289.0	9.569
1290.0	9.581
1291.0	9.588
1292.0	9.575
1293.0	9.556
1294.0	9.556
1295.0	9.546
1296.0	9.515
1297.0	9.485
1298.0	9.469
1299.0	9.473
1300.0	9.466
1301.0	9.474
1302.0	9.501
1303.0	9.526
1304.0	9.525
1305.0	9.515
1306.0	9.495
1307.0	9.478
1308.0	9.448
1309.0	9.426
1310.0	9.443
1311.0	9.436
1312.0	9.439
1313.0	9.409
1314.0	9.423
1315.0	9.415
1316.0	9.413
1317.0	9.403
1318.0	9.402
1319.0	9.407
1320.0	9.381
1321.0	9.387
1322.0	9.378
1323.0	9.383
1324.0	9.376
1325.0	9.382
1326.0	9.393
1327.0	9.388
1328.0	9.382
1329.0	9.374
1330.0	9.373
1331.0	9.365
1332.0	9.362
1333.0	9.347
1334.0	9.340
1335.0	9.337
1336.0	9.310
1337.0	9.320
1338.0	9.301
1339.0	9.290
1340.0	9.258
1341.0	9.250
1342.0	9.252
1343.0	9.236
1344.0	9.235
1345.0	9.230
1346.0	9.235
1347.0	9.250
1348.0	9.252
1349.0	9.267
1350.0	9.235
1351.0	9.245
1352.0	9.241
1353.0	9.236
1354.0	9.220
1355.0	9.220
1356.0	9.230
1357.0	9.224
1358.0	9.208
1359.0	9.207
1360.0	9.209
1361.0	9.202
1362.0	9.189
1363.0	9.195
1364.0	9.199
1365.0	9.202
1366.0	9.194
1367.0	9.189
1368.0	9.166
1369.0	9.150
1370.0	9.142
1371.0	9.168
1372.0	9.180
1373.0	9.185
1374.0	9.180
1375.0	9.168
1376.0	9.157
1377.0	9.165
1378.0	9.169
1379.0	9.196
1380.0	9.194
1381.0	9.210
1382.0	9.206
1383.0	9.192
1384.0	9.196
1385.0	9.185
1386.0	9.162
1387.0	9.191
1388.0	9.187
1389.0	9.222
1390.0	9.188
1391.0	9.193
1392.0	9.189
1393.0	9.222
1394.0	9.226
1395.0	9.247
1396.0	9.243
1397.0	9.270
1398.0	9.277
1399.0	9.261
1400.0	9.249
1401.0	9.248
1402.0	9.263
1403.0	9.280
1404.0	9.305
1405.0	9.307
1406.0	9.298
1407.0	9.294
1408.0	9.301
1409.0	9.314
1410.0	9.306
1411.0	9.318
1412.0	9.325
1413.0	9.344
1414.0	9.344
1415.0	9.344
1416.0	9.324
1417.0	9.326
1418.0	9.329
1419.0	9.349
1420.0	9.347
1421.0	9.366
1422.0	9.365
1423.0	9.370
1424.0	9.402
1425.0	9.429
1426.0	9.440
1427.0	9.393
1428.0	9.382
1429.0	9.386
1430.0	9.390
1431.0	9.405
1432.0	9.397
1433.0	9.407
1434.0	9.387
1435.0	9.373
1436.0	9.376
1437.0	9.373
1438.0	9.413
1439.0	9.374
1440.0	9.353
1441.0	9.310
1442.0	9.325
1443.0	9.319
1444.0	9.295
1445.0	9.327
1446.0	9.364
1447.0	9.392
1448.0	9.361
1449.0	9.358
1450.0	9.354
1451.0	9.356
1452.0	9.325
1453.0	9.349
1454.0	9.360
1455.0	9.397
1456.0	9.355
1457.0	9.360
1458.0	9.355
1459.0	9.373
1460.0	9.363
1461.0	9.348
1462.0	9.340
1463.0	9.354
1464.0	9.329
1465.0	9.346
1466.0	9.307
1467.0	9.302
1468.0	9.318
1469.0	9.323
1470.0	9.333
1471.0	9.289
1472.0	9.280
1473.0	9.304
1474.0	9.315
1475.0	9.304
1476.0	9.275
1477.0	9.272
1478.0	9.257
1479.0	9.283
1480.0	9.286
1481.0	9.300
1482.0	9.270
1483.0	9.239
1484.0	9.266
1485.0	9.238
1486.0	9.233
1487.0	9.205
1488.0	9.204
1489.0	9.220
1490.0	9.211
1491.0	9.241
1492.0	9.208
1493.0	9.216
1494.0	9.201
1495.0	9.229
1496.0	9.233
1497.0	9.231
1498.0	9.220
1499.0	9.207
1500.0	9.198
1501.0	9.201
1502.0	9.201
1503.0	9.181
1504.0	9.184
1505.0	9.139
1506.0	9.149
1507.0	9.119
1508.0	9.137
1509.0	9.106
1510.0	9.141
1511.0	9.159
1512.0	9.150
1513.0	9.157
1514.0	9.139
1515.0	9.143
1516.0	9.101
1517.0	9.105
1518.0	9.127
1519.0	9.157
1520.0	9.160
1521.0	9.178
1522.0	9.153
1523.0	9.142
1524.0	9.093
1525.0	9.091
1526.0	9.062
1527.0	9.067
1528.0	9.052
1529.0	9.103
1530.0	9.092
1531.0	9.060
1532.0	9.034
1533.0	9.040
1534.0	9.066
1535.0	9.073
1536.0	9.104
1537.0	9.115
1538.0	9.108
1539.0	9.109
1540.0	9.110
1541.0	9.119
1542.0	9.125
1543.0	9.094
1544.0	9.075
1545.0	9.045
1546.0	9.079
1547.0	9.085
1548.0	9.109
1549.0	9.103
1550.0	9.093
1551.0	9.054
1552.0	9.043
1553.0	9.040
1554.0	9.070
1555.0	9.081
1556.0	9.067
1557.0	9.078
1558.0	9.118
1559.0	9.107
1560.0	9.045
1561.0	8.996
1562.0	8.973
1563.0	9.043
1564.0	9.079
1565.0	9.156
1566.0	9.134
1567.0	9.084
1568.0	9.076
1569.0	9.079
1570.0	9.073
1571.0	9.096
1572.0	9.056
1573.0	9.078
1574.0	9.018
1575.0	9.036
1576.0	9.037
1577.0	9.053
1578.0	9.076
1579.0	9.085
1580.0	9.071
1581.0	9.043
1582.0	9.038
1583.0	9.061
1584.0	9.071
1585.0	9.076
1586.0	9.137
1587.0	9.115
1588.0	9.093
1589.0	9.044
1590.0	9.109
1591.0	9.192
1592.0	9.198
1593.0	9.138
1594.0	9.087
1595.0	9.060
1596.0	9.079
1597.0	9.056
1598.0	9.091
1599.0	9.087
1600.0	9.097
